WORKSHOP 3 EXPORTED DATA: [C:\wyniki\2012_03_26\Kopia 26_03.W01 - 1]
*************************************************************************************************
Source of data: ScriptPl
WS3 File Version: 1,05
Number of bytes in subfile: 89187
Total number of data points: 4434
Test date: 26-03-2012
Test time: 15:38:44
Player Step: 1
Step Capture No: 1
Actuator: 1
*************************************************************************************************
Actuator: 1  Channel:0	 Actuator: 1  Channel:1	 Actuator: 1  Channel:2	 Actuator: 1  Channel:3	 Actuator: 1  Channel:4	 
Load (kN)	 Stroke (mm)	 Extension (mm)	 Command (%)	 Time (s)	 
-0,006	 -62,865	 -0,113	 -48,310	 0,000	 
-0,005	 -62,866	 -0,112	 -48,308	 0,100	 
-0,005	 -62,866	 -0,113	 -48,297	 0,200	 
-0,005	 -62,850	 -0,113	 -48,292	 0,300	 
-0,006	 -62,835	 -0,112	 -48,283	 0,400	 
-0,006	 -62,828	 -0,112	 -48,274	 0,500	 
-0,005	 -62,814	 -0,113	 -48,270	 0,600	 
-0,006	 -62,810	 -0,113	 -48,258	 0,700	 
-0,006	 -62,801	 -0,113	 -48,254	 0,800	 
-0,006	 -62,786	 -0,112	 -48,245	 0,900	 
-0,005	 -62,775	 -0,113	 -48,237	 1,000	 
-0,005	 -62,768	 -0,112	 -48,228	 1,100	 
-0,005	 -62,755	 -0,112	 -48,220	 1,200	 
-0,005	 -62,744	 -0,112	 -48,216	 1,300	 
-0,006	 -62,735	 -0,113	 -48,202	 1,400	 
-0,006	 -62,725	 -0,113	 -48,199	 1,500	 
-0,005	 -62,711	 -0,112	 -48,189	 1,600	 
-0,005	 -62,710	 -0,113	 -48,182	 1,700	 
-0,006	 -62,696	 -0,112	 -48,173	 1,800	 
-0,006	 -62,690	 -0,112	 -48,166	 1,900	 
-0,005	 -62,676	 -0,113	 -48,162	 2,000	 
-0,006	 -62,669	 -0,113	 -48,151	 2,100	 
-0,006	 -62,656	 -0,113	 -48,147	 2,200	 
-0,005	 -62,645	 -0,113	 -48,136	 2,300	 
-0,005	 -62,641	 -0,113	 -48,129	 2,400	 
-0,006	 -62,630	 -0,113	 -48,121	 2,500	 
-0,005	 -62,616	 -0,113	 -48,112	 2,600	 
-0,006	 -62,606	 -0,112	 -48,107	 2,700	 
-0,005	 -62,598	 -0,112	 -48,099	 2,800	 
-0,005	 -62,587	 -0,113	 -48,087	 2,900	 
-0,006	 -62,579	 -0,113	 -48,082	 3,000	 
-0,006	 -62,571	 -0,112	 -48,071	 3,100	 
-0,005	 -62,562	 -0,112	 -48,066	 3,200	 
-0,006	 -62,555	 -0,112	 -48,060	 3,300	 
-0,006	 -62,538	 -0,112	 -48,050	 3,400	 
-0,006	 -62,527	 -0,113	 -48,042	 3,500	 
-0,006	 -62,521	 -0,113	 -48,039	 3,600	 
-0,006	 -62,507	 -0,113	 -48,028	 3,700	 
-0,006	 -62,498	 -0,112	 -48,022	 3,800	 
-0,006	 -62,490	 -0,113	 -48,014	 3,900	 
-0,005	 -62,476	 -0,112	 -48,006	 4,000	 
-0,005	 -62,470	 -0,113	 -47,997	 4,100	 
-0,006	 -62,456	 -0,113	 -47,989	 4,200	 
-0,006	 -62,451	 -0,112	 -47,981	 4,300	 
-0,005	 -62,437	 -0,112	 -47,974	 4,400	 
-0,006	 -62,431	 -0,113	 -47,967	 4,500	 
-0,005	 -62,419	 -0,113	 -47,956	 4,600	 
-0,006	 -62,410	 -0,113	 -47,951	 4,700	 
-0,006	 -62,400	 -0,112	 -47,942	 4,800	 
-0,005	 -62,389	 -0,112	 -47,937	 4,900	 
-0,005	 -62,377	 -0,112	 -47,925	 5,000	 
-0,006	 -62,369	 -0,113	 -47,921	 5,100	 
-0,005	 -62,358	 -0,113	 -47,912	 5,200	 
-0,006	 -62,349	 -0,112	 -47,904	 5,300	 
-0,006	 -62,338	 -0,113	 -47,896	 5,400	 
-0,006	 -62,332	 -0,113	 -47,890	 5,500	 
-0,005	 -62,317	 -0,112	 -47,884	 5,600	 
-0,006	 -62,307	 -0,112	 -47,874	 5,700	 
-0,005	 -62,300	 -0,112	 -47,867	 5,800	 
-0,006	 -62,288	 -0,112	 -47,857	 5,900	 
-0,005	 -62,278	 -0,112	 -47,851	 6,000	 
-0,006	 -62,262	 -0,113	 -47,843	 6,100	 
-0,005	 -62,260	 -0,113	 -47,836	 6,200	 
-0,006	 -62,247	 -0,112	 -47,826	 6,300	 
-0,005	 -62,239	 -0,112	 -47,821	 6,400	 
-0,006	 -62,227	 -0,113	 -47,813	 6,500	 
-0,005	 -62,219	 -0,113	 -47,808	 6,600	 
-0,006	 -62,212	 -0,112	 -47,796	 6,700	 
-0,006	 -62,200	 -0,113	 -47,792	 6,800	 
-0,006	 -62,189	 -0,113	 -47,782	 6,900	 
-0,006	 -62,182	 -0,112	 -47,776	 7,000	 
-0,005	 -62,169	 -0,112	 -47,766	 7,100	 
-0,006	 -62,162	 -0,112	 -47,761	 7,200	 
-0,006	 -62,150	 -0,113	 -47,755	 7,300	 
-0,006	 -62,138	 -0,112	 -47,744	 7,400	 
-0,006	 -62,132	 -0,112	 -47,739	 7,500	 
-0,006	 -62,118	 -0,112	 -47,728	 7,600	 
-0,006	 -62,107	 -0,112	 -47,722	 7,700	 
-0,006	 -62,098	 -0,112	 -47,715	 7,800	 
-0,006	 -62,089	 -0,113	 -47,707	 7,900	 
-0,005	 -62,078	 -0,112	 -47,700	 8,000	 
-0,006	 -62,072	 -0,112	 -47,692	 8,100	 
-0,005	 -62,057	 -0,112	 -47,684	 8,200	 
-0,006	 -62,050	 -0,113	 -47,679	 8,300	 
-0,006	 -62,039	 -0,113	 -47,670	 8,400	 
-0,006	 -62,030	 -0,112	 -47,661	 8,500	 
-0,006	 -62,020	 -0,113	 -47,650	 8,600	 
-0,006	 -62,013	 -0,113	 -47,648	 8,700	 
-0,006	 -62,000	 -0,112	 -47,636	 8,800	 
-0,006	 -61,989	 -0,113	 -47,630	 8,900	 
-0,006	 -61,979	 -0,113	 -47,622	 9,000	 
-0,006	 -61,972	 -0,113	 -47,617	 9,100	 
-0,006	 -61,960	 -0,113	 -47,609	 9,200	 
-0,006	 -61,951	 -0,113	 -47,601	 9,300	 
-0,006	 -61,940	 -0,113	 -47,594	 9,400	 
-0,006	 -61,927	 -0,112	 -47,586	 9,500	 
-0,006	 -61,921	 -0,112	 -47,579	 9,600	 
-0,006	 -61,909	 -0,113	 -47,569	 9,700	 
-0,006	 -61,902	 -0,112	 -47,562	 9,800	 
-0,006	 -61,893	 -0,113	 -47,557	 9,900	 
-0,006	 -61,881	 -0,112	 -47,547	 10,000	 
-0,006	 -61,872	 -0,113	 -47,539	 10,100	 
-0,006	 -61,859	 -0,112	 -47,534	 10,200	 
-0,006	 -61,851	 -0,112	 -47,525	 10,300	 
-0,006	 -61,839	 -0,113	 -47,518	 10,400	 
-0,006	 -61,829	 -0,113	 -47,507	 10,500	 
-0,006	 -61,822	 -0,112	 -47,504	 10,600	 
-0,006	 -61,810	 -0,112	 -47,493	 10,700	 
-0,006	 -61,800	 -0,113	 -47,481	 10,800	 
-0,006	 -61,791	 -0,113	 -47,474	 10,900	 
-0,006	 -61,782	 -0,112	 -47,468	 11,000	 
-0,006	 -61,769	 -0,112	 -47,461	 11,100	 
-0,006	 -61,760	 -0,112	 -47,453	 11,200	 
-0,006	 -61,754	 -0,112	 -47,442	 11,300	 
-0,006	 -61,740	 -0,113	 -47,435	 11,400	 
-0,006	 -61,729	 -0,113	 -47,425	 11,500	 
-0,006	 -61,720	 -0,113	 -47,418	 11,600	 
-0,006	 -61,712	 -0,112	 -47,409	 11,700	 
-0,006	 -61,702	 -0,113	 -47,407	 11,800	 
-0,006	 -61,696	 -0,112	 -47,393	 11,900	 
-0,006	 -61,683	 -0,112	 -47,386	 12,000	 
-0,006	 -61,669	 -0,113	 -47,380	 12,100	 
-0,006	 -61,662	 -0,112	 -47,372	 12,200	 
-0,006	 -61,646	 -0,113	 -47,365	 12,300	 
-0,006	 -61,641	 -0,113	 -47,359	 12,400	 
-0,006	 -61,627	 -0,113	 -47,352	 12,500	 
-0,006	 -61,625	 -0,112	 -47,343	 12,600	 
-0,006	 -61,618	 -0,112	 -47,338	 12,700	 
-0,005	 -61,599	 -0,112	 -47,328	 12,800	 
-0,006	 -61,589	 -0,113	 -47,317	 12,900	 
-0,006	 -61,582	 -0,112	 -47,312	 13,000	 
-0,006	 -61,573	 -0,112	 -47,306	 13,100	 
-0,006	 -61,562	 -0,112	 -47,294	 13,200	 
-0,006	 -61,547	 -0,113	 -47,288	 13,300	 
-0,006	 -61,543	 -0,112	 -47,280	 13,400	 
-0,006	 -61,530	 -0,113	 -47,273	 13,500	 
-0,006	 -61,521	 -0,113	 -47,265	 13,600	 
-0,006	 -61,511	 -0,113	 -47,260	 13,700	 
-0,006	 -61,506	 -0,113	 -47,249	 13,800	 
-0,006	 -61,493	 -0,113	 -47,245	 13,900	 
-0,005	 -61,479	 -0,112	 -47,231	 14,000	 
-0,006	 -61,471	 -0,112	 -47,228	 14,100	 
-0,005	 -61,458	 -0,112	 -47,219	 14,200	 
-0,006	 -61,453	 -0,113	 -47,212	 14,300	 
-0,006	 -61,444	 -0,112	 -47,201	 14,400	 
-0,006	 -61,430	 -0,112	 -47,200	 14,500	 
-0,006	 -61,423	 -0,113	 -47,188	 14,600	 
-0,006	 -61,414	 -0,113	 -47,185	 14,700	 
-0,005	 -61,402	 -0,112	 -47,172	 14,800	 
-0,006	 -61,391	 -0,112	 -47,167	 14,900	 
-0,006	 -61,381	 -0,113	 -47,158	 15,000	 
-0,006	 -61,374	 -0,112	 -47,151	 15,100	 
-0,006	 -61,359	 -0,112	 -47,142	 15,200	 
-0,006	 -61,352	 -0,112	 -47,135	 15,300	 
-0,006	 -61,342	 -0,112	 -47,128	 15,400	 
-0,006	 -61,331	 -0,112	 -47,120	 15,500	 
-0,006	 -61,323	 -0,113	 -47,113	 15,600	 
-0,006	 -61,311	 -0,113	 -47,109	 15,700	 
-0,006	 -61,299	 -0,113	 -47,098	 15,800	 
-0,006	 -61,292	 -0,113	 -47,094	 15,900	 
-0,006	 -61,282	 -0,112	 -47,085	 16,000	 
-0,006	 -61,273	 -0,113	 -47,076	 16,100	 
-0,006	 -61,261	 -0,113	 -47,069	 16,200	 
-0,006	 -61,251	 -0,112	 -47,063	 16,300	 
-0,006	 -61,240	 -0,113	 -47,052	 16,400	 
-0,006	 -61,233	 -0,113	 -47,047	 16,500	 
-0,006	 -61,224	 -0,112	 -47,039	 16,600	 
-0,006	 -61,212	 -0,113	 -47,030	 16,700	 
-0,005	 -61,201	 -0,113	 -47,024	 16,800	 
-0,006	 -61,184	 -0,113	 -47,014	 16,900	 
-0,006	 -61,184	 -0,113	 -47,008	 17,000	 
-0,006	 -61,175	 -0,113	 -47,001	 17,100	 
-0,006	 -61,161	 -0,112	 -46,990	 17,200	 
-0,006	 -61,150	 -0,112	 -46,984	 17,300	 
-0,006	 -61,141	 -0,113	 -46,975	 17,400	 
-0,006	 -61,135	 -0,112	 -46,967	 17,500	 
-0,005	 -61,122	 -0,113	 -46,958	 17,600	 
-0,006	 -61,111	 -0,113	 -46,952	 17,700	 
-0,005	 -61,100	 -0,112	 -46,945	 17,800	 
-0,005	 -61,092	 -0,113	 -46,937	 17,900	 
-0,005	 -61,081	 -0,112	 -46,928	 18,000	 
-0,006	 -61,068	 -0,112	 -46,922	 18,100	 
-0,006	 -61,066	 -0,112	 -46,911	 18,200	 
-0,005	 -61,051	 -0,112	 -46,907	 18,300	 
-0,006	 -61,040	 -0,112	 -46,900	 18,400	 
-0,006	 -61,026	 -0,113	 -46,891	 18,500	 
-0,005	 -61,022	 -0,112	 -46,885	 18,600	 
-0,005	 -61,012	 -0,112	 -46,877	 18,700	 
-0,005	 -61,001	 -0,112	 -46,870	 18,800	 
-0,006	 -60,991	 -0,112	 -46,861	 18,900	 
-0,006	 -60,981	 -0,113	 -46,854	 19,000	 
-0,006	 -60,971	 -0,112	 -46,840	 19,100	 
-0,005	 -60,963	 -0,113	 -46,839	 19,200	 
-0,005	 -60,949	 -0,112	 -46,831	 19,300	 
-0,006	 -60,942	 -0,113	 -46,822	 19,400	 
-0,006	 -60,931	 -0,113	 -46,817	 19,500	 
-0,006	 -60,923	 -0,113	 -46,807	 19,600	 
-0,006	 -60,912	 -0,112	 -46,800	 19,700	 
-0,005	 -60,902	 -0,113	 -46,789	 19,800	 
-0,005	 -60,895	 -0,112	 -46,780	 19,900	 
-0,005	 -60,881	 -0,113	 -46,777	 20,000	 
-0,006	 -60,870	 -0,112	 -46,765	 20,100	 
-0,006	 -60,865	 -0,113	 -46,760	 20,200	 
-0,005	 -60,852	 -0,113	 -46,750	 20,300	 
-0,006	 -60,843	 -0,113	 -46,743	 20,400	 
-0,005	 -60,831	 -0,112	 -46,736	 20,500	 
-0,006	 -60,823	 -0,113	 -46,727	 20,600	 
-0,006	 -60,809	 -0,113	 -46,722	 20,700	 
-0,006	 -60,803	 -0,112	 -46,714	 20,800	 
-0,005	 -60,791	 -0,113	 -46,705	 20,900	 
-0,005	 -60,782	 -0,112	 -46,699	 21,000	 
-0,006	 -60,773	 -0,113	 -46,690	 21,100	 
-0,006	 -60,761	 -0,112	 -46,684	 21,200	 
-0,006	 -60,750	 -0,112	 -46,675	 21,300	 
-0,006	 -60,745	 -0,113	 -46,669	 21,400	 
-0,005	 -60,730	 -0,112	 -46,659	 21,500	 
-0,006	 -60,726	 -0,112	 -46,651	 21,600	 
-0,006	 -60,712	 -0,112	 -46,645	 21,700	 
-0,006	 -60,702	 -0,113	 -46,636	 21,800	 
-0,005	 -60,687	 -0,113	 -46,629	 21,900	 
-0,006	 -60,683	 -0,113	 -46,624	 22,000	 
-0,005	 -60,670	 -0,113	 -46,613	 22,100	 
-0,006	 -60,661	 -0,113	 -46,607	 22,200	 
-0,006	 -60,650	 -0,112	 -46,598	 22,300	 
-0,005	 -60,641	 -0,113	 -46,596	 22,400	 
-0,005	 -60,631	 -0,112	 -46,581	 22,500	 
-0,006	 -60,620	 -0,113	 -46,576	 22,600	 
-0,006	 -60,611	 -0,113	 -46,569	 22,700	 
-0,006	 -60,604	 -0,113	 -46,563	 22,800	 
-0,005	 -60,590	 -0,113	 -46,552	 22,900	 
-0,006	 -60,583	 -0,112	 -46,545	 23,000	 
-0,006	 -60,573	 -0,113	 -46,541	 23,100	 
-0,006	 -60,562	 -0,112	 -46,530	 23,200	 
-0,006	 -60,556	 -0,112	 -46,524	 23,300	 
-0,006	 -60,543	 -0,112	 -46,514	 23,400	 
-0,006	 -60,530	 -0,112	 -46,502	 23,500	 
-0,006	 -60,522	 -0,113	 -46,499	 23,600	 
-0,006	 -60,508	 -0,112	 -46,491	 23,700	 
-0,006	 -60,501	 -0,112	 -46,482	 23,800	 
-0,006	 -60,492	 -0,113	 -46,474	 23,900	 
-0,006	 -60,483	 -0,112	 -46,465	 24,000	 
-0,006	 -60,469	 -0,112	 -46,460	 24,100	 
-0,006	 -60,464	 -0,112	 -46,452	 24,200	 
-0,006	 -60,451	 -0,112	 -46,440	 24,300	 
-0,006	 -60,442	 -0,113	 -46,436	 24,400	 
-0,006	 -60,435	 -0,113	 -46,429	 24,500	 
-0,006	 -60,420	 -0,112	 -46,418	 24,600	 
-0,006	 -60,414	 -0,112	 -46,409	 24,700	 
-0,006	 -60,402	 -0,112	 -46,404	 24,800	 
-0,006	 -60,389	 -0,112	 -46,396	 24,900	 
-0,006	 -60,383	 -0,113	 -46,389	 25,000	 
-0,006	 -60,367	 -0,113	 -46,381	 25,100	 
-0,006	 -60,363	 -0,112	 -46,374	 25,200	 
-0,006	 -60,349	 -0,113	 -46,369	 25,300	 
-0,006	 -60,344	 -0,113	 -46,360	 25,400	 
-0,006	 -60,331	 -0,113	 -46,355	 25,500	 
-0,006	 -60,323	 -0,113	 -46,344	 25,600	 
-0,006	 -60,317	 -0,112	 -46,338	 25,700	 
-0,006	 -60,302	 -0,113	 -46,330	 25,800	 
-0,006	 -60,295	 -0,113	 -46,322	 25,900	 
-0,006	 -60,280	 -0,112	 -46,314	 26,000	 
-0,006	 -60,273	 -0,113	 -46,307	 26,100	 
-0,006	 -60,261	 -0,113	 -46,298	 26,200	 
-0,006	 -60,251	 -0,113	 -46,294	 26,300	 
-0,006	 -60,242	 -0,113	 -46,283	 26,400	 
-0,006	 -60,233	 -0,112	 -46,277	 26,500	 
-0,006	 -60,220	 -0,112	 -46,267	 26,600	 
-0,006	 -60,212	 -0,113	 -46,259	 26,700	 
-0,006	 -60,199	 -0,112	 -46,252	 26,800	 
-0,006	 -60,196	 -0,113	 -46,245	 26,900	 
-0,006	 -60,178	 -0,113	 -46,238	 27,000	 
-0,006	 -60,177	 -0,112	 -46,228	 27,100	 
-0,006	 -60,162	 -0,113	 -46,223	 27,200	 
-0,006	 -60,152	 -0,112	 -46,214	 27,300	 
-0,006	 -60,139	 -0,113	 -46,206	 27,400	 
-0,006	 -60,133	 -0,112	 -46,197	 27,500	 
-0,006	 -60,121	 -0,112	 -46,189	 27,600	 
-0,006	 -60,112	 -0,113	 -46,182	 27,700	 
-0,006	 -60,103	 -0,113	 -46,177	 27,800	 
-0,006	 -60,090	 -0,112	 -46,165	 27,900	 
-0,006	 -60,078	 -0,113	 -46,157	 28,000	 
-0,006	 -60,074	 -0,112	 -46,151	 28,100	 
-0,006	 -60,062	 -0,112	 -46,145	 28,200	 
-0,006	 -60,050	 -0,113	 -46,134	 28,300	 
-0,006	 -60,041	 -0,113	 -46,128	 28,400	 
-0,006	 -60,034	 -0,113	 -46,120	 28,500	 
-0,006	 -60,021	 -0,112	 -46,113	 28,600	 
-0,006	 -60,011	 -0,113	 -46,108	 28,700	 
-0,006	 -60,006	 -0,113	 -46,098	 28,800	 
-0,006	 -59,994	 -0,113	 -46,090	 28,900	 
-0,006	 -59,980	 -0,113	 -46,083	 29,000	 
-0,006	 -59,974	 -0,113	 -46,073	 29,100	 
-0,006	 -59,960	 -0,113	 -46,065	 29,200	 
-0,006	 -59,955	 -0,113	 -46,057	 29,300	 
-0,006	 -59,942	 -0,113	 -46,052	 29,400	 
-0,006	 -59,931	 -0,113	 -46,042	 29,500	 
-0,006	 -59,923	 -0,113	 -46,035	 29,600	 
-0,006	 -59,909	 -0,113	 -46,028	 29,700	 
-0,006	 -59,902	 -0,113	 -46,020	 29,800	 
-0,006	 -59,891	 -0,112	 -46,013	 29,900	 
-0,006	 -59,880	 -0,113	 -46,004	 30,000	 
-0,006	 -59,873	 -0,113	 -45,997	 30,100	 
-0,006	 -59,865	 -0,113	 -45,987	 30,200	 
-0,006	 -59,853	 -0,112	 -45,981	 30,300	 
-0,006	 -59,841	 -0,112	 -45,974	 30,400	 
-0,006	 -59,830	 -0,112	 -45,963	 30,500	 
-0,006	 -59,818	 -0,113	 -45,960	 30,600	 
-0,006	 -59,811	 -0,112	 -45,952	 30,700	 
-0,006	 -59,800	 -0,112	 -45,945	 30,800	 
-0,006	 -59,795	 -0,113	 -45,941	 30,900	 
-0,006	 -59,782	 -0,113	 -45,926	 31,000	 
-0,006	 -59,772	 -0,112	 -45,921	 31,100	 
-0,006	 -59,761	 -0,113	 -45,911	 31,200	 
-0,006	 -59,752	 -0,112	 -45,905	 31,300	 
-0,006	 -59,739	 -0,113	 -45,895	 31,400	 
-0,006	 -59,734	 -0,113	 -45,892	 31,500	 
-0,006	 -59,722	 -0,112	 -45,886	 31,600	 
-0,006	 -59,711	 -0,113	 -45,875	 31,700	 
-0,006	 -59,703	 -0,113	 -45,867	 31,800	 
-0,006	 -59,694	 -0,113	 -45,863	 31,900	 
-0,006	 -59,684	 -0,112	 -45,853	 32,000	 
-0,006	 -59,669	 -0,113	 -45,845	 32,100	 
-0,006	 -59,660	 -0,113	 -45,839	 32,200	 
-0,006	 -59,651	 -0,113	 -45,831	 32,300	 
-0,006	 -59,640	 -0,113	 -45,820	 32,400	 
-0,006	 -59,632	 -0,113	 -45,815	 32,500	 
-0,006	 -59,626	 -0,113	 -45,809	 32,600	 
-0,006	 -59,612	 -0,113	 -45,798	 32,700	 
-0,006	 -59,603	 -0,112	 -45,792	 32,800	 
-0,006	 -59,590	 -0,112	 -45,783	 32,900	 
-0,006	 -59,583	 -0,113	 -45,778	 33,000	 
-0,006	 -59,569	 -0,113	 -45,768	 33,100	 
-0,006	 -59,561	 -0,113	 -45,761	 33,200	 
-0,006	 -59,551	 -0,113	 -45,754	 33,300	 
-0,006	 -59,539	 -0,113	 -45,745	 33,400	 
-0,006	 -59,534	 -0,113	 -45,739	 33,500	 
-0,006	 -59,522	 -0,112	 -45,732	 33,600	 
-0,006	 -59,515	 -0,112	 -45,724	 33,700	 
-0,006	 -59,504	 -0,112	 -45,717	 33,800	 
-0,006	 -59,489	 -0,112	 -45,708	 33,900	 
-0,006	 -59,480	 -0,112	 -45,700	 34,000	 
-0,006	 -59,473	 -0,113	 -45,695	 34,100	 
-0,006	 -59,463	 -0,113	 -45,684	 34,200	 
-0,006	 -59,451	 -0,113	 -45,678	 34,300	 
-0,006	 -59,446	 -0,113	 -45,668	 34,400	 
-0,006	 -59,433	 -0,113	 -45,662	 34,500	 
-0,006	 -59,421	 -0,112	 -45,653	 34,600	 
-0,006	 -59,413	 -0,113	 -45,647	 34,700	 
-0,006	 -59,400	 -0,112	 -45,639	 34,800	 
-0,006	 -59,393	 -0,112	 -45,632	 34,900	 
-0,006	 -59,381	 -0,113	 -45,623	 35,000	 
-0,006	 -59,374	 -0,112	 -45,618	 35,100	 
-0,006	 -59,360	 -0,113	 -45,606	 35,200	 
-0,006	 -59,353	 -0,113	 -45,601	 35,300	 
-0,006	 -59,346	 -0,113	 -45,594	 35,400	 
-0,006	 -59,332	 -0,113	 -45,589	 35,500	 
-0,006	 -59,325	 -0,112	 -45,579	 35,600	 
-0,006	 -59,311	 -0,113	 -45,573	 35,700	 
-0,006	 -59,304	 -0,113	 -45,563	 35,800	 
-0,006	 -59,290	 -0,112	 -45,557	 35,900	 
-0,006	 -59,282	 -0,113	 -45,548	 36,000	 
-0,006	 -59,274	 -0,113	 -45,543	 36,100	 
-0,006	 -59,260	 -0,113	 -45,535	 36,200	 
-0,006	 -59,252	 -0,112	 -45,519	 36,300	 
-0,006	 -59,240	 -0,113	 -45,512	 36,400	 
-0,006	 -59,231	 -0,112	 -45,506	 36,500	 
-0,006	 -59,223	 -0,112	 -45,500	 36,600	 
-0,006	 -59,209	 -0,112	 -45,494	 36,700	 
-0,006	 -59,203	 -0,113	 -45,478	 36,800	 
-0,006	 -59,196	 -0,113	 -45,472	 36,900	 
-0,006	 -59,179	 -0,113	 -45,463	 37,000	 
-0,006	 -59,173	 -0,112	 -45,459	 37,100	 
-0,006	 -59,163	 -0,113	 -45,448	 37,200	 
-0,006	 -59,150	 -0,112	 -45,437	 37,300	 
-0,006	 -59,140	 -0,113	 -45,433	 37,400	 
-0,006	 -59,127	 -0,113	 -45,427	 37,500	 
-0,006	 -59,120	 -0,113	 -45,419	 37,600	 
-0,006	 -59,112	 -0,112	 -45,409	 37,700	 
-0,006	 -59,099	 -0,113	 -45,403	 37,800	 
-0,006	 -59,092	 -0,112	 -45,395	 37,900	 
-0,006	 -59,084	 -0,113	 -45,386	 38,000	 
-0,006	 -59,069	 -0,113	 -45,381	 38,100	 
-0,006	 -59,061	 -0,113	 -45,374	 38,200	 
-0,006	 -59,052	 -0,113	 -45,366	 38,300	 
-0,006	 -59,040	 -0,113	 -45,360	 38,400	 
-0,006	 -59,034	 -0,113	 -45,351	 38,500	 
-0,006	 -59,022	 -0,113	 -45,344	 38,600	 
-0,006	 -59,011	 -0,113	 -45,336	 38,700	 
-0,006	 -59,006	 -0,113	 -45,326	 38,800	 
-0,006	 -58,987	 -0,113	 -45,323	 38,900	 
-0,006	 -58,981	 -0,112	 -45,313	 39,000	 
-0,006	 -58,971	 -0,113	 -45,304	 39,100	 
-0,006	 -58,961	 -0,113	 -45,297	 39,200	 
-0,006	 -58,951	 -0,112	 -45,291	 39,300	 
-0,006	 -58,940	 -0,113	 -45,283	 39,400	 
-0,006	 -58,929	 -0,113	 -45,275	 39,500	 
-0,006	 -58,923	 -0,112	 -45,266	 39,600	 
-0,006	 -58,913	 -0,113	 -45,259	 39,700	 
-0,006	 -58,900	 -0,113	 -45,253	 39,800	 
-0,006	 -58,893	 -0,113	 -45,244	 39,900	 
-0,006	 -58,882	 -0,112	 -45,233	 40,000	 
-0,006	 -58,873	 -0,112	 -45,229	 40,100	 
-0,006	 -58,865	 -0,112	 -45,220	 40,200	 
-0,006	 -58,851	 -0,113	 -45,212	 40,300	 
-0,006	 -58,839	 -0,113	 -45,205	 40,400	 
-0,006	 -58,833	 -0,113	 -45,198	 40,500	 
-0,006	 -58,819	 -0,112	 -45,193	 40,600	 
-0,006	 -58,812	 -0,112	 -45,185	 40,700	 
-0,006	 -58,801	 -0,113	 -45,177	 40,800	 
-0,006	 -58,790	 -0,113	 -45,167	 40,900	 
-0,006	 -58,782	 -0,113	 -45,163	 41,000	 
-0,006	 -58,768	 -0,113	 -45,156	 41,100	 
-0,006	 -58,763	 -0,112	 -45,144	 41,200	 
-0,006	 -58,753	 -0,112	 -45,137	 41,300	 
-0,006	 -58,741	 -0,112	 -45,130	 41,400	 
-0,006	 -58,731	 -0,112	 -45,123	 41,500	 
-0,006	 -58,720	 -0,113	 -45,115	 41,600	 
-0,006	 -58,717	 -0,113	 -45,110	 41,700	 
-0,006	 -58,702	 -0,113	 -45,101	 41,800	 
-0,006	 -58,694	 -0,113	 -45,095	 41,900	 
-0,006	 -58,682	 -0,113	 -45,084	 42,000	 
-0,006	 -58,673	 -0,113	 -45,076	 42,100	 
-0,006	 -58,664	 -0,113	 -45,067	 42,200	 
-0,006	 -58,654	 -0,113	 -45,064	 42,300	 
-0,006	 -58,642	 -0,113	 -45,053	 42,400	 
-0,006	 -58,633	 -0,112	 -45,047	 42,500	 
-0,006	 -58,621	 -0,113	 -45,034	 42,600	 
-0,006	 -58,613	 -0,113	 -45,031	 42,700	 
-0,006	 -58,600	 -0,113	 -45,029	 42,800	 
-0,006	 -58,593	 -0,113	 -45,016	 42,900	 
-0,006	 -58,582	 -0,113	 -45,007	 43,000	 
-0,006	 -58,569	 -0,112	 -44,999	 43,100	 
-0,006	 -58,563	 -0,113	 -44,991	 43,200	 
-0,006	 -58,550	 -0,112	 -44,986	 43,300	 
-0,006	 -58,543	 -0,113	 -44,976	 43,400	 
-0,006	 -58,533	 -0,113	 -44,970	 43,500	 
-0,006	 -58,526	 -0,113	 -44,963	 43,600	 
-0,006	 -58,520	 -0,113	 -44,956	 43,700	 
-0,006	 -58,501	 -0,112	 -44,950	 43,800	 
-0,006	 -58,492	 -0,112	 -44,941	 43,900	 
-0,006	 -58,481	 -0,113	 -44,932	 44,000	 
-0,006	 -58,471	 -0,113	 -44,923	 44,100	 
-0,006	 -58,459	 -0,113	 -44,917	 44,200	 
-0,006	 -58,449	 -0,113	 -44,909	 44,300	 
-0,006	 -58,443	 -0,113	 -44,902	 44,400	 
-0,006	 -58,433	 -0,113	 -44,895	 44,500	 
-0,007	 -58,423	 -0,113	 -44,887	 44,600	 
-0,006	 -58,416	 -0,112	 -44,880	 44,700	 
-0,007	 -58,408	 -0,113	 -44,869	 44,800	 
-0,006	 -58,395	 -0,112	 -44,863	 44,900	 
-0,007	 -58,384	 -0,113	 -44,858	 45,000	 
-0,006	 -58,369	 -0,113	 -44,848	 45,100	 
-0,006	 -58,360	 -0,113	 -44,842	 45,200	 
-0,006	 -58,352	 -0,113	 -44,827	 45,300	 
-0,006	 -58,346	 -0,113	 -44,821	 45,400	 
-0,006	 -58,332	 -0,113	 -44,817	 45,500	 
-0,006	 -58,322	 -0,112	 -44,806	 45,600	 
-0,006	 -58,314	 -0,113	 -44,801	 45,700	 
-0,005	 -58,304	 -0,112	 -44,794	 45,800	 
-0,005	 -58,295	 -0,112	 -44,785	 45,900	 
-0,005	 -58,283	 -0,113	 -44,773	 46,000	 
-0,005	 -58,274	 -0,112	 -44,768	 46,100	 
-0,005	 -58,262	 -0,112	 -44,761	 46,200	 
-0,005	 -58,252	 -0,113	 -44,754	 46,300	 
-0,005	 -58,246	 -0,113	 -44,746	 46,400	 
-0,005	 -58,228	 -0,113	 -44,736	 46,500	 
-0,004	 -58,224	 -0,113	 -44,729	 46,600	 
-0,004	 -58,212	 -0,112	 -44,722	 46,700	 
-0,004	 -58,203	 -0,113	 -44,717	 46,800	 
-0,004	 -58,191	 -0,113	 -44,707	 46,900	 
-0,005	 -58,182	 -0,113	 -44,699	 47,000	 
-0,005	 -58,175	 -0,112	 -44,690	 47,100	 
-0,005	 -58,162	 -0,113	 -44,689	 47,200	 
-0,005	 -58,150	 -0,113	 -44,678	 47,300	 
-0,005	 -58,142	 -0,112	 -44,670	 47,400	 
-0,005	 -58,132	 -0,113	 -44,664	 47,500	 
-0,005	 -58,126	 -0,113	 -44,653	 47,600	 
-0,004	 -58,111	 -0,113	 -44,646	 47,700	 
-0,004	 -58,101	 -0,113	 -44,638	 47,800	 
-0,005	 -58,092	 -0,113	 -44,631	 47,900	 
-0,005	 -58,082	 -0,113	 -44,624	 48,000	 
-0,005	 -58,073	 -0,113	 -44,617	 48,100	 
-0,005	 -58,058	 -0,112	 -44,607	 48,200	 
-0,005	 -58,050	 -0,113	 -44,597	 48,300	 
-0,005	 -58,042	 -0,113	 -44,594	 48,400	 
-0,004	 -58,028	 -0,112	 -44,584	 48,500	 
-0,004	 -58,020	 -0,113	 -44,580	 48,600	 
-0,005	 -58,008	 -0,112	 -44,569	 48,700	 
-0,004	 -58,008	 -0,112	 -44,563	 48,800	 
-0,004	 -57,994	 -0,113	 -44,558	 48,900	 
-0,004	 -57,982	 -0,113	 -44,545	 49,000	 
-0,004	 -57,972	 -0,113	 -44,536	 49,100	 
-0,004	 -57,961	 -0,113	 -44,527	 49,200	 
-0,004	 -57,953	 -0,113	 -44,520	 49,300	 
-0,003	 -57,940	 -0,113	 -44,515	 49,400	 
-0,002	 -57,936	 -0,113	 -44,508	 49,500	 
-0,001	 -57,916	 -0,112	 -44,498	 49,600	 
0,001	 -57,910	 -0,113	 -44,490	 49,700	 
0,004	 -57,902	 -0,113	 -44,485	 49,800	 
0,002	 -57,894	 -0,112	 -44,477	 49,900	 
0,001	 -57,880	 -0,112	 -44,466	 50,000	 
0,001	 -57,871	 -0,112	 -44,459	 50,100	 
0,001	 -57,860	 -0,113	 -44,452	 50,200	 
0,001	 -57,853	 -0,112	 -44,440	 50,300	 
0,003	 -57,844	 -0,113	 -44,436	 50,400	 
0,006	 -57,832	 -0,113	 -44,429	 50,500	 
0,007	 -57,823	 -0,113	 -44,425	 50,600	 
0,007	 -57,816	 -0,113	 -44,417	 50,700	 
0,007	 -57,801	 -0,112	 -44,409	 50,800	 
0,008	 -57,789	 -0,112	 -44,399	 50,900	 
0,008	 -57,783	 -0,113	 -44,390	 51,000	 
0,009	 -57,772	 -0,113	 -44,386	 51,100	 
0,010	 -57,767	 -0,113	 -44,378	 51,200	 
0,011	 -57,753	 -0,112	 -44,371	 51,300	 
0,013	 -57,740	 -0,113	 -44,363	 51,400	 
0,014	 -57,733	 -0,112	 -44,356	 51,500	 
0,017	 -57,723	 -0,113	 -44,348	 51,600	 
0,020	 -57,712	 -0,113	 -44,337	 51,700	 
0,025	 -57,701	 -0,113	 -44,335	 51,800	 
0,030	 -57,689	 -0,113	 -44,324	 51,900	 
0,037	 -57,688	 -0,113	 -44,316	 52,000	 
0,047	 -57,670	 -0,113	 -44,308	 52,100	 
0,058	 -57,663	 -0,112	 -44,302	 52,200	 
0,071	 -57,656	 -0,112	 -44,293	 52,300	 
0,087	 -57,642	 -0,113	 -44,284	 52,400	 
0,105	 -57,635	 -0,112	 -44,278	 52,500	 
0,125	 -57,623	 -0,113	 -44,271	 52,600	 
0,147	 -57,613	 -0,113	 -44,262	 52,700	 
0,172	 -57,607	 -0,113	 -44,256	 52,800	 
0,201	 -57,594	 -0,113	 -44,246	 52,900	 
0,234	 -57,586	 -0,112	 -44,240	 53,000	 
0,276	 -57,573	 -0,113	 -44,232	 53,100	 
0,319	 -57,564	 -0,113	 -44,225	 53,200	 
0,365	 -57,550	 -0,112	 -44,216	 53,300	 
0,413	 -57,543	 -0,112	 -44,207	 53,400	 
0,457	 -57,534	 -0,113	 -44,205	 53,500	 
0,497	 -57,520	 -0,112	 -44,195	 53,600	 
0,532	 -57,517	 -0,113	 -44,185	 53,700	 
0,565	 -57,506	 -0,113	 -44,175	 53,800	 
0,598	 -57,496	 -0,113	 -44,168	 53,900	 
0,622	 -57,483	 -0,113	 -44,158	 54,000	 
0,642	 -57,472	 -0,113	 -44,152	 54,100	 
0,659	 -57,462	 -0,113	 -44,145	 54,200	 
0,674	 -57,457	 -0,113	 -44,141	 54,300	 
0,687	 -57,443	 -0,113	 -44,130	 54,400	 
0,701	 -57,434	 -0,113	 -44,123	 54,500	 
0,714	 -57,424	 -0,112	 -44,114	 54,600	 
0,726	 -57,416	 -0,112	 -44,104	 54,700	 
0,736	 -57,402	 -0,113	 -44,100	 54,800	 
0,747	 -57,395	 -0,113	 -44,096	 54,900	 
0,758	 -57,385	 -0,113	 -44,085	 55,000	 
0,769	 -57,371	 -0,112	 -44,079	 55,100	 
0,778	 -57,366	 -0,113	 -44,067	 55,200	 
0,787	 -57,351	 -0,113	 -44,063	 55,300	 
0,794	 -57,344	 -0,113	 -44,052	 55,400	 
0,802	 -57,337	 -0,113	 -44,045	 55,500	 
0,810	 -57,325	 -0,113	 -44,040	 55,600	 
0,817	 -57,313	 -0,113	 -44,028	 55,700	 
0,823	 -57,305	 -0,112	 -44,023	 55,800	 
0,830	 -57,297	 -0,113	 -44,015	 55,900	 
0,837	 -57,283	 -0,112	 -44,009	 56,000	 
0,845	 -57,272	 -0,113	 -44,001	 56,100	 
0,851	 -57,265	 -0,113	 -43,993	 56,200	 
0,856	 -57,253	 -0,112	 -43,986	 56,300	 
0,861	 -57,247	 -0,112	 -43,975	 56,400	 
0,865	 -57,233	 -0,113	 -43,969	 56,500	 
0,871	 -57,225	 -0,112	 -43,961	 56,600	 
0,876	 -57,216	 -0,113	 -43,953	 56,700	 
0,882	 -57,202	 -0,113	 -43,946	 56,800	 
0,887	 -57,194	 -0,113	 -43,939	 56,900	 
0,891	 -57,184	 -0,113	 -43,935	 57,000	 
0,896	 -57,174	 -0,112	 -43,923	 57,100	 
0,900	 -57,165	 -0,113	 -43,913	 57,200	 
0,905	 -57,156	 -0,112	 -43,907	 57,300	 
0,912	 -57,145	 -0,113	 -43,899	 57,400	 
0,916	 -57,135	 -0,113	 -43,894	 57,500	 
0,919	 -57,124	 -0,113	 -43,886	 57,600	 
0,924	 -57,114	 -0,113	 -43,877	 57,700	 
0,929	 -57,104	 -0,113	 -43,869	 57,800	 
0,930	 -57,094	 -0,112	 -43,863	 57,900	 
0,933	 -57,082	 -0,112	 -43,859	 58,000	 
0,937	 -57,073	 -0,113	 -43,847	 58,100	 
0,941	 -57,065	 -0,112	 -43,842	 58,200	 
0,947	 -57,056	 -0,112	 -43,833	 58,300	 
0,953	 -57,050	 -0,112	 -43,825	 58,400	 
0,954	 -57,030	 -0,113	 -43,817	 58,500	 
0,955	 -57,024	 -0,112	 -43,808	 58,600	 
0,959	 -57,013	 -0,112	 -43,802	 58,700	 
0,962	 -57,005	 -0,113	 -43,795	 58,800	 
0,966	 -56,996	 -0,113	 -43,787	 58,900	 
0,970	 -56,980	 -0,113	 -43,777	 59,000	 
0,971	 -56,978	 -0,112	 -43,767	 59,100	 
0,974	 -56,964	 -0,113	 -43,765	 59,200	 
0,979	 -56,953	 -0,113	 -43,757	 59,300	 
0,982	 -56,950	 -0,113	 -43,749	 59,400	 
0,985	 -56,933	 -0,113	 -43,737	 59,500	 
0,991	 -56,926	 -0,113	 -43,734	 59,600	 
0,995	 -56,915	 -0,113	 -43,726	 59,700	 
0,996	 -56,903	 -0,113	 -43,717	 59,800	 
0,995	 -56,894	 -0,112	 -43,711	 59,900	 
0,999	 -56,881	 -0,113	 -43,701	 60,000	 
1,003	 -56,874	 -0,113	 -43,695	 60,100	 
1,006	 -56,861	 -0,112	 -43,689	 60,200	 
1,008	 -56,853	 -0,113	 -43,683	 60,300	 
1,011	 -56,843	 -0,112	 -43,674	 60,400	 
1,013	 -56,831	 -0,113	 -43,665	 60,500	 
1,015	 -56,825	 -0,112	 -43,661	 60,600	 
1,017	 -56,817	 -0,113	 -43,653	 60,700	 
1,020	 -56,806	 -0,113	 -43,641	 60,800	 
1,020	 -56,793	 -0,112	 -43,634	 60,900	 
1,026	 -56,786	 -0,113	 -43,628	 61,000	 
1,029	 -56,776	 -0,113	 -43,620	 61,100	 
1,030	 -56,763	 -0,113	 -43,614	 61,200	 
1,032	 -56,757	 -0,113	 -43,606	 61,300	 
1,035	 -56,744	 -0,112	 -43,594	 61,400	 
1,036	 -56,735	 -0,113	 -43,590	 61,500	 
1,039	 -56,725	 -0,113	 -43,579	 61,600	 
1,042	 -56,714	 -0,113	 -43,570	 61,700	 
1,045	 -56,705	 -0,113	 -43,561	 61,800	 
1,046	 -56,697	 -0,113	 -43,554	 61,900	 
1,049	 -56,685	 -0,112	 -43,546	 62,000	 
1,056	 -56,677	 -0,112	 -43,537	 62,100	 
1,056	 -56,668	 -0,113	 -43,532	 62,200	 
1,058	 -56,656	 -0,113	 -43,524	 62,300	 
1,059	 -56,644	 -0,113	 -43,513	 62,400	 
1,060	 -56,634	 -0,113	 -43,503	 62,500	 
1,059	 -56,625	 -0,112	 -43,493	 62,600	 
1,061	 -56,616	 -0,113	 -43,487	 62,700	 
1,066	 -56,605	 -0,112	 -43,480	 62,800	 
1,068	 -56,595	 -0,113	 -43,476	 62,900	 
1,069	 -56,585	 -0,113	 -43,467	 63,000	 
1,075	 -56,575	 -0,112	 -43,457	 63,100	 
1,075	 -56,562	 -0,113	 -43,453	 63,200	 
1,075	 -56,556	 -0,112	 -43,445	 63,300	 
1,078	 -56,543	 -0,113	 -43,440	 63,400	 
1,082	 -56,536	 -0,113	 -43,432	 63,500	 
1,083	 -56,524	 -0,112	 -43,423	 63,600	 
1,080	 -56,511	 -0,113	 -43,414	 63,700	 
1,083	 -56,505	 -0,112	 -43,408	 63,800	 
1,087	 -56,494	 -0,112	 -43,399	 63,900	 
1,091	 -56,487	 -0,112	 -43,386	 64,000	 
1,092	 -56,476	 -0,113	 -43,383	 64,100	 
1,094	 -56,462	 -0,112	 -43,377	 64,200	 
1,096	 -56,455	 -0,113	 -43,364	 64,300	 
1,095	 -56,445	 -0,113	 -43,360	 64,400	 
1,097	 -56,438	 -0,113	 -43,354	 64,500	 
1,100	 -56,429	 -0,113	 -43,344	 64,600	 
1,102	 -56,417	 -0,113	 -43,342	 64,700	 
1,106	 -56,405	 -0,113	 -43,329	 64,800	 
1,105	 -56,395	 -0,113	 -43,326	 64,900	 
1,108	 -56,384	 -0,113	 -43,313	 65,000	 
1,111	 -56,374	 -0,113	 -43,308	 65,100	 
1,111	 -56,365	 -0,113	 -43,299	 65,200	 
1,113	 -56,355	 -0,113	 -43,293	 65,300	 
1,113	 -56,346	 -0,113	 -43,287	 65,400	 
1,115	 -56,335	 -0,113	 -43,277	 65,500	 
1,116	 -56,324	 -0,113	 -43,272	 65,600	 
1,120	 -56,315	 -0,113	 -43,261	 65,700	 
1,122	 -56,308	 -0,112	 -43,254	 65,800	 
1,122	 -56,294	 -0,113	 -43,250	 65,900	 
1,123	 -56,283	 -0,113	 -43,237	 66,000	 
1,123	 -56,276	 -0,113	 -43,232	 66,100	 
1,128	 -56,267	 -0,112	 -43,222	 66,200	 
1,129	 -56,257	 -0,112	 -43,214	 66,300	 
1,131	 -56,248	 -0,113	 -43,210	 66,400	 
1,131	 -56,234	 -0,113	 -43,199	 66,500	 
1,131	 -56,224	 -0,113	 -43,195	 66,600	 
1,134	 -56,213	 -0,113	 -43,186	 66,700	 
1,140	 -56,205	 -0,112	 -43,178	 66,800	 
1,140	 -56,195	 -0,113	 -43,174	 66,900	 
1,140	 -56,185	 -0,113	 -43,162	 67,000	 
1,140	 -56,176	 -0,113	 -43,156	 67,100	 
1,141	 -56,162	 -0,112	 -43,147	 67,200	 
1,142	 -56,156	 -0,112	 -43,139	 67,300	 
1,145	 -56,142	 -0,113	 -43,134	 67,400	 
1,145	 -56,136	 -0,112	 -43,124	 67,500	 
1,146	 -56,125	 -0,113	 -43,117	 67,600	 
1,148	 -56,119	 -0,113	 -43,108	 67,700	 
1,149	 -56,107	 -0,113	 -43,103	 67,800	 
1,151	 -56,094	 -0,113	 -43,096	 67,900	 
1,152	 -56,088	 -0,113	 -43,089	 68,000	 
1,153	 -56,079	 -0,113	 -43,084	 68,100	 
1,156	 -56,064	 -0,113	 -43,073	 68,200	 
1,157	 -56,056	 -0,113	 -43,064	 68,300	 
1,159	 -56,046	 -0,113	 -43,056	 68,400	 
1,165	 -56,033	 -0,113	 -43,048	 68,500	 
1,165	 -56,025	 -0,113	 -43,046	 68,600	 
1,167	 -56,012	 -0,112	 -43,033	 68,700	 
1,166	 -56,008	 -0,113	 -43,030	 68,800	 
1,165	 -55,990	 -0,113	 -43,019	 68,900	 
1,168	 -55,987	 -0,113	 -43,009	 69,000	 
1,168	 -55,976	 -0,113	 -43,006	 69,100	 
1,171	 -55,964	 -0,113	 -42,996	 69,200	 
1,172	 -55,959	 -0,113	 -42,986	 69,300	 
1,175	 -55,945	 -0,113	 -42,980	 69,400	 
1,175	 -55,937	 -0,113	 -42,972	 69,500	 
1,174	 -55,929	 -0,113	 -42,967	 69,600	 
1,177	 -55,917	 -0,113	 -42,958	 69,700	 
1,179	 -55,908	 -0,113	 -42,949	 69,800	 
1,178	 -55,896	 -0,113	 -42,939	 69,900	 
1,182	 -55,889	 -0,112	 -42,932	 70,000	 
1,183	 -55,875	 -0,113	 -42,930	 70,100	 
1,183	 -55,868	 -0,113	 -42,920	 70,200	 
1,186	 -55,854	 -0,112	 -42,910	 70,300	 
1,188	 -55,843	 -0,113	 -42,902	 70,400	 
1,187	 -55,836	 -0,112	 -42,896	 70,500	 
1,189	 -55,828	 -0,113	 -42,891	 70,600	 
1,191	 -55,816	 -0,113	 -42,880	 70,700	 
1,193	 -55,806	 -0,113	 -42,870	 70,800	 
1,194	 -55,795	 -0,113	 -42,860	 70,900	 
1,195	 -55,788	 -0,112	 -42,853	 71,000	 
1,195	 -55,776	 -0,113	 -42,849	 71,100	 
1,198	 -55,765	 -0,112	 -42,840	 71,200	 
1,198	 -55,755	 -0,113	 -42,831	 71,300	 
1,201	 -55,743	 -0,113	 -42,823	 71,400	 
1,203	 -55,737	 -0,113	 -42,816	 71,500	 
1,203	 -55,723	 -0,113	 -42,812	 71,600	 
1,204	 -55,714	 -0,112	 -42,801	 71,700	 
1,205	 -55,702	 -0,112	 -42,794	 71,800	 
1,204	 -55,692	 -0,112	 -42,781	 71,900	 
1,208	 -55,691	 -0,113	 -42,781	 72,000	 
1,207	 -55,677	 -0,113	 -42,772	 72,100	 
1,211	 -55,663	 -0,113	 -42,766	 72,200	 
1,211	 -55,653	 -0,112	 -42,756	 72,300	 
1,212	 -55,643	 -0,113	 -42,747	 72,400	 
1,213	 -55,636	 -0,113	 -42,740	 72,500	 
1,214	 -55,624	 -0,113	 -42,735	 72,600	 
1,215	 -55,611	 -0,112	 -42,726	 72,700	 
1,219	 -55,603	 -0,112	 -42,717	 72,800	 
1,217	 -55,594	 -0,112	 -42,711	 72,900	 
1,219	 -55,586	 -0,113	 -42,704	 73,000	 
1,218	 -55,576	 -0,112	 -42,698	 73,100	 
1,221	 -55,564	 -0,113	 -42,688	 73,200	 
1,222	 -55,552	 -0,112	 -42,678	 73,300	 
1,224	 -55,547	 -0,113	 -42,672	 73,400	 
1,226	 -55,537	 -0,113	 -42,664	 73,500	 
1,226	 -55,525	 -0,113	 -42,660	 73,600	 
1,226	 -55,515	 -0,113	 -42,651	 73,700	 
1,228	 -55,507	 -0,112	 -42,641	 73,800	 
1,229	 -55,494	 -0,113	 -42,634	 73,900	 
1,229	 -55,487	 -0,113	 -42,625	 74,000	 
1,232	 -55,477	 -0,113	 -42,623	 74,100	 
1,234	 -55,466	 -0,112	 -42,610	 74,200	 
1,233	 -55,456	 -0,112	 -42,603	 74,300	 
1,231	 -55,446	 -0,113	 -42,590	 74,400	 
1,235	 -55,438	 -0,112	 -42,584	 74,500	 
1,235	 -55,426	 -0,113	 -42,580	 74,600	 
1,239	 -55,413	 -0,112	 -42,568	 74,700	 
1,239	 -55,406	 -0,113	 -42,562	 74,800	 
1,239	 -55,395	 -0,113	 -42,552	 74,900	 
1,240	 -55,386	 -0,113	 -42,546	 75,000	 
1,240	 -55,375	 -0,113	 -42,542	 75,100	 
1,243	 -55,366	 -0,112	 -42,531	 75,200	 
1,246	 -55,356	 -0,112	 -42,525	 75,300	 
1,245	 -55,346	 -0,113	 -42,518	 75,400	 
1,247	 -55,338	 -0,113	 -42,509	 75,500	 
1,246	 -55,324	 -0,113	 -42,503	 75,600	 
1,246	 -55,315	 -0,112	 -42,492	 75,700	 
1,250	 -55,305	 -0,113	 -42,487	 75,800	 
1,251	 -55,297	 -0,113	 -42,476	 75,900	 
1,252	 -55,290	 -0,113	 -42,470	 76,000	 
1,252	 -55,276	 -0,113	 -42,463	 76,100	 
1,254	 -55,265	 -0,112	 -42,457	 76,200	 
1,254	 -55,256	 -0,113	 -42,448	 76,300	 
1,259	 -55,244	 -0,112	 -42,443	 76,400	 
1,256	 -55,235	 -0,112	 -42,433	 76,500	 
1,258	 -55,223	 -0,113	 -42,428	 76,600	 
1,258	 -55,218	 -0,113	 -42,417	 76,700	 
1,259	 -55,207	 -0,113	 -42,411	 76,800	 
1,263	 -55,197	 -0,112	 -42,403	 76,900	 
1,263	 -55,185	 -0,113	 -42,395	 77,000	 
1,260	 -55,176	 -0,113	 -42,387	 77,100	 
1,261	 -55,167	 -0,113	 -42,382	 77,200	 
1,264	 -55,150	 -0,112	 -42,373	 77,300	 
1,265	 -55,148	 -0,113	 -42,364	 77,400	 
1,266	 -55,135	 -0,112	 -42,354	 77,500	 
1,267	 -55,125	 -0,113	 -42,349	 77,600	 
1,266	 -55,121	 -0,113	 -42,340	 77,700	 
1,269	 -55,107	 -0,112	 -42,334	 77,800	 
1,269	 -55,098	 -0,112	 -42,327	 77,900	 
1,270	 -55,086	 -0,113	 -42,317	 78,000	 
1,273	 -55,075	 -0,113	 -42,311	 78,100	 
1,271	 -55,065	 -0,113	 -42,304	 78,200	 
1,275	 -55,053	 -0,113	 -42,294	 78,300	 
1,275	 -55,044	 -0,113	 -42,286	 78,400	 
1,276	 -55,036	 -0,113	 -42,283	 78,500	 
1,278	 -55,023	 -0,113	 -42,273	 78,600	 
1,279	 -55,012	 -0,112	 -42,264	 78,700	 
1,279	 -55,007	 -0,113	 -42,257	 78,800	 
1,278	 -54,994	 -0,112	 -42,249	 78,900	 
1,280	 -54,984	 -0,113	 -42,243	 79,000	 
1,281	 -54,972	 -0,113	 -42,233	 79,100	 
1,283	 -54,963	 -0,112	 -42,229	 79,200	 
1,282	 -54,952	 -0,113	 -42,218	 79,300	 
1,286	 -54,943	 -0,113	 -42,211	 79,400	 
1,285	 -54,934	 -0,112	 -42,202	 79,500	 
1,286	 -54,920	 -0,113	 -42,196	 79,600	 
1,286	 -54,915	 -0,112	 -42,182	 79,700	 
1,287	 -54,906	 -0,113	 -42,177	 79,800	 
1,288	 -54,896	 -0,113	 -42,169	 79,900	 
1,289	 -54,884	 -0,113	 -42,167	 80,000	 
1,291	 -54,871	 -0,113	 -42,154	 80,100	 
1,290	 -54,866	 -0,113	 -42,145	 80,200	 
1,289	 -54,859	 -0,113	 -42,143	 80,300	 
1,295	 -54,845	 -0,113	 -42,132	 80,400	 
1,295	 -54,838	 -0,113	 -42,128	 80,500	 
1,296	 -54,824	 -0,113	 -42,113	 80,600	 
1,297	 -54,815	 -0,113	 -42,107	 80,700	 
1,297	 -54,804	 -0,112	 -42,100	 80,800	 
1,299	 -54,794	 -0,113	 -42,093	 80,900	 
1,298	 -54,784	 -0,113	 -42,086	 81,000	 
1,299	 -54,773	 -0,112	 -42,079	 81,100	 
1,300	 -54,767	 -0,113	 -42,067	 81,200	 
1,299	 -54,752	 -0,113	 -42,064	 81,300	 
1,301	 -54,741	 -0,112	 -42,053	 81,400	 
1,303	 -54,734	 -0,113	 -42,049	 81,500	 
1,294	 -54,727	 -0,113	 -42,042	 81,600	 
1,299	 -54,715	 -0,113	 -42,033	 81,700	 
1,302	 -54,703	 -0,113	 -42,026	 81,800	 
1,302	 -54,696	 -0,112	 -42,017	 81,900	 
1,306	 -54,692	 -0,113	 -42,010	 82,000	 
1,308	 -54,675	 -0,113	 -42,001	 82,100	 
1,309	 -54,664	 -0,113	 -41,994	 82,200	 
1,309	 -54,656	 -0,112	 -41,988	 82,300	 
1,307	 -54,641	 -0,113	 -41,981	 82,400	 
1,312	 -54,635	 -0,113	 -41,971	 82,500	 
1,311	 -54,625	 -0,112	 -41,969	 82,600	 
1,311	 -54,615	 -0,112	 -41,955	 82,700	 
1,313	 -54,604	 -0,112	 -41,948	 82,800	 
1,312	 -54,596	 -0,113	 -41,942	 82,900	 
1,313	 -54,585	 -0,113	 -41,934	 83,000	 
1,315	 -54,577	 -0,113	 -41,924	 83,100	 
1,317	 -54,566	 -0,113	 -41,915	 83,200	 
1,315	 -54,558	 -0,113	 -41,914	 83,300	 
1,315	 -54,546	 -0,113	 -41,909	 83,400	 
1,317	 -54,535	 -0,113	 -41,896	 83,500	 
1,319	 -54,524	 -0,113	 -41,888	 83,600	 
1,318	 -54,516	 -0,112	 -41,880	 83,700	 
1,321	 -54,509	 -0,112	 -41,872	 83,800	 
1,322	 -54,497	 -0,113	 -41,866	 83,900	 
1,321	 -54,487	 -0,113	 -41,858	 84,000	 
1,321	 -54,476	 -0,113	 -41,850	 84,100	 
1,323	 -54,467	 -0,112	 -41,844	 84,200	 
1,324	 -54,459	 -0,113	 -41,834	 84,300	 
1,324	 -54,446	 -0,112	 -41,827	 84,400	 
1,324	 -54,439	 -0,112	 -41,819	 84,500	 
1,328	 -54,429	 -0,112	 -41,815	 84,600	 
1,327	 -54,420	 -0,113	 -41,803	 84,700	 
1,330	 -54,407	 -0,113	 -41,797	 84,800	 
1,331	 -54,395	 -0,113	 -41,789	 84,900	 
1,329	 -54,389	 -0,113	 -41,785	 85,000	 
1,329	 -54,375	 -0,113	 -41,773	 85,100	 
1,331	 -54,365	 -0,112	 -41,766	 85,200	 
1,331	 -54,359	 -0,112	 -41,757	 85,300	 
1,333	 -54,348	 -0,113	 -41,751	 85,400	 
1,335	 -54,340	 -0,112	 -41,744	 85,500	 
1,334	 -54,324	 -0,113	 -41,736	 85,600	 
1,333	 -54,318	 -0,112	 -41,728	 85,700	 
1,333	 -54,305	 -0,113	 -41,725	 85,800	 
1,337	 -54,300	 -0,113	 -41,713	 85,900	 
1,338	 -54,290	 -0,113	 -41,709	 86,000	 
1,338	 -54,273	 -0,113	 -41,699	 86,100	 
1,341	 -54,267	 -0,113	 -41,692	 86,200	 
1,340	 -54,256	 -0,113	 -41,684	 86,300	 
1,340	 -54,246	 -0,113	 -41,676	 86,400	 
1,341	 -54,238	 -0,112	 -41,668	 86,500	 
1,340	 -54,224	 -0,113	 -41,663	 86,600	 
1,344	 -54,220	 -0,112	 -41,654	 86,700	 
1,342	 -54,206	 -0,112	 -41,645	 86,800	 
1,344	 -54,193	 -0,112	 -41,636	 86,900	 
1,345	 -54,189	 -0,112	 -41,632	 87,000	 
1,343	 -54,178	 -0,113	 -41,626	 87,100	 
1,345	 -54,164	 -0,112	 -41,612	 87,200	 
1,346	 -54,157	 -0,112	 -41,602	 87,300	 
1,347	 -54,145	 -0,112	 -41,593	 87,400	 
1,348	 -54,138	 -0,113	 -41,588	 87,500	 
1,347	 -54,128	 -0,113	 -41,581	 87,600	 
1,349	 -54,115	 -0,113	 -41,573	 87,700	 
1,349	 -54,101	 -0,112	 -41,559	 87,800	 
1,349	 -54,094	 -0,112	 -41,552	 87,900	 
1,352	 -54,086	 -0,113	 -41,548	 88,000	 
1,353	 -54,077	 -0,112	 -41,542	 88,100	 
1,351	 -54,064	 -0,113	 -41,530	 88,200	 
1,354	 -54,058	 -0,113	 -41,524	 88,300	 
1,355	 -54,045	 -0,112	 -41,515	 88,400	 
1,355	 -54,035	 -0,113	 -41,503	 88,500	 
1,355	 -54,028	 -0,112	 -41,499	 88,600	 
1,358	 -54,019	 -0,112	 -41,495	 88,700	 
1,356	 -54,006	 -0,113	 -41,485	 88,800	 
1,358	 -53,994	 -0,113	 -41,478	 88,900	 
1,357	 -53,988	 -0,113	 -41,468	 89,000	 
1,360	 -53,977	 -0,113	 -41,462	 89,100	 
1,358	 -53,967	 -0,113	 -41,455	 89,200	 
1,359	 -53,953	 -0,113	 -41,448	 89,300	 
1,361	 -53,943	 -0,112	 -41,438	 89,400	 
1,361	 -53,940	 -0,113	 -41,433	 89,500	 
1,363	 -53,923	 -0,113	 -41,425	 89,600	 
1,362	 -53,919	 -0,112	 -41,418	 89,700	 
1,362	 -53,903	 -0,112	 -41,409	 89,800	 
1,363	 -53,893	 -0,113	 -41,405	 89,900	 
1,365	 -53,889	 -0,112	 -41,391	 90,000	 
1,366	 -53,875	 -0,113	 -41,385	 90,100	 
1,366	 -53,863	 -0,112	 -41,376	 90,200	 
1,364	 -53,857	 -0,113	 -41,371	 90,300	 
1,366	 -53,843	 -0,113	 -41,363	 90,400	 
1,368	 -53,840	 -0,112	 -41,356	 90,500	 
1,367	 -53,826	 -0,112	 -41,348	 90,600	 
1,369	 -53,815	 -0,113	 -41,342	 90,700	 
1,369	 -53,804	 -0,112	 -41,332	 90,800	 
1,368	 -53,790	 -0,113	 -41,322	 90,900	 
1,369	 -53,787	 -0,113	 -41,319	 91,000	 
1,370	 -53,780	 -0,113	 -41,311	 91,100	 
1,372	 -53,768	 -0,112	 -41,302	 91,200	 
1,373	 -53,754	 -0,113	 -41,297	 91,300	 
1,371	 -53,742	 -0,113	 -41,286	 91,400	 
1,373	 -53,735	 -0,112	 -41,278	 91,500	 
1,374	 -53,724	 -0,113	 -41,274	 91,600	 
1,376	 -53,714	 -0,113	 -41,261	 91,700	 
1,377	 -53,711	 -0,113	 -41,254	 91,800	 
1,375	 -53,694	 -0,113	 -41,249	 91,900	 
1,375	 -53,685	 -0,112	 -41,239	 92,000	 
1,378	 -53,676	 -0,112	 -41,235	 92,100	 
1,379	 -53,664	 -0,113	 -41,226	 92,200	 
1,377	 -53,656	 -0,113	 -41,220	 92,300	 
1,377	 -53,644	 -0,113	 -41,212	 92,400	 
1,377	 -53,636	 -0,112	 -41,203	 92,500	 
1,379	 -53,626	 -0,113	 -41,195	 92,600	 
1,380	 -53,615	 -0,112	 -41,190	 92,700	 
1,382	 -53,607	 -0,113	 -41,182	 92,800	 
1,382	 -53,593	 -0,113	 -41,176	 92,900	 
1,381	 -53,586	 -0,113	 -41,165	 93,000	 
1,383	 -53,573	 -0,112	 -41,157	 93,100	 
1,383	 -53,567	 -0,112	 -41,151	 93,200	 
1,382	 -53,556	 -0,113	 -41,140	 93,300	 
1,383	 -53,545	 -0,112	 -41,135	 93,400	 
1,383	 -53,536	 -0,113	 -41,129	 93,500	 
1,386	 -53,523	 -0,112	 -41,120	 93,600	 
1,385	 -53,516	 -0,113	 -41,111	 93,700	 
1,386	 -53,509	 -0,113	 -41,107	 93,800	 
1,389	 -53,495	 -0,113	 -41,096	 93,900	 
1,387	 -53,488	 -0,112	 -41,089	 94,000	 
1,387	 -53,474	 -0,112	 -41,080	 94,100	 
1,386	 -53,464	 -0,113	 -41,074	 94,200	 
1,388	 -53,459	 -0,113	 -41,069	 94,300	 
1,389	 -53,444	 -0,113	 -41,056	 94,400	 
1,390	 -53,435	 -0,112	 -41,050	 94,500	 
1,391	 -53,425	 -0,113	 -41,043	 94,600	 
1,389	 -53,414	 -0,112	 -41,034	 94,700	 
1,391	 -53,406	 -0,112	 -41,030	 94,800	 
1,392	 -53,396	 -0,113	 -41,024	 94,900	 
1,392	 -53,386	 -0,113	 -41,013	 95,000	 
1,391	 -53,375	 -0,113	 -41,005	 95,100	 
1,392	 -53,364	 -0,112	 -40,995	 95,200	 
1,393	 -53,357	 -0,113	 -40,989	 95,300	 
1,391	 -53,346	 -0,113	 -40,986	 95,400	 
1,397	 -53,335	 -0,113	 -40,974	 95,500	 
1,398	 -53,326	 -0,113	 -40,967	 95,600	 
1,395	 -53,317	 -0,113	 -40,960	 95,700	 
1,395	 -53,305	 -0,112	 -40,950	 95,800	 
1,396	 -53,295	 -0,112	 -40,945	 95,900	 
1,397	 -53,285	 -0,113	 -40,936	 96,000	 
1,396	 -53,275	 -0,113	 -40,931	 96,100	 
1,396	 -53,267	 -0,112	 -40,921	 96,200	 
1,397	 -53,261	 -0,112	 -40,910	 96,300	 
1,397	 -53,246	 -0,112	 -40,903	 96,400	 
1,396	 -53,237	 -0,113	 -40,896	 96,500	 
1,399	 -53,227	 -0,113	 -40,888	 96,600	 
1,399	 -53,213	 -0,112	 -40,878	 96,700	 
1,398	 -53,205	 -0,113	 -40,871	 96,800	 
1,399	 -53,195	 -0,112	 -40,865	 96,900	 
1,399	 -53,188	 -0,113	 -40,857	 97,000	 
1,400	 -53,175	 -0,112	 -40,848	 97,100	 
1,400	 -53,165	 -0,113	 -40,840	 97,200	 
1,401	 -53,157	 -0,113	 -40,833	 97,300	 
1,401	 -53,146	 -0,113	 -40,828	 97,400	 
1,401	 -53,136	 -0,112	 -40,818	 97,500	 
1,401	 -53,127	 -0,113	 -40,813	 97,600	 
1,401	 -53,114	 -0,113	 -40,803	 97,700	 
1,402	 -53,105	 -0,113	 -40,796	 97,800	 
1,400	 -53,094	 -0,113	 -40,789	 97,900	 
1,402	 -53,087	 -0,113	 -40,779	 98,000	 
1,403	 -53,079	 -0,112	 -40,771	 98,100	 
1,402	 -53,063	 -0,112	 -40,763	 98,200	 
1,403	 -53,056	 -0,112	 -40,757	 98,300	 
1,404	 -53,048	 -0,113	 -40,752	 98,400	 
1,404	 -53,034	 -0,113	 -40,744	 98,500	 
1,404	 -53,024	 -0,112	 -40,736	 98,600	 
1,405	 -53,016	 -0,113	 -40,730	 98,700	 
1,404	 -53,005	 -0,113	 -40,719	 98,800	 
1,404	 -52,995	 -0,112	 -40,715	 98,900	 
1,403	 -52,985	 -0,112	 -40,704	 99,000	 
1,405	 -52,979	 -0,113	 -40,698	 99,100	 
1,404	 -52,966	 -0,112	 -40,691	 99,200	 
1,405	 -52,957	 -0,112	 -40,680	 99,300	 
1,406	 -52,951	 -0,112	 -40,674	 99,400	 
1,405	 -52,935	 -0,113	 -40,669	 99,500	 
1,404	 -52,924	 -0,112	 -40,660	 99,600	 
1,406	 -52,913	 -0,112	 -40,652	 99,700	 
1,404	 -52,906	 -0,113	 -40,644	 99,800	 
1,404	 -52,896	 -0,112	 -40,635	 99,900	 
1,405	 -52,887	 -0,113	 -40,625	 100,000	 
1,405	 -52,879	 -0,113	 -40,621	 100,100	 
1,406	 -52,863	 -0,113	 -40,609	 100,200	 
1,406	 -52,856	 -0,113	 -40,602	 100,300	 
1,405	 -52,843	 -0,112	 -40,596	 100,400	 
1,405	 -52,838	 -0,112	 -40,587	 100,500	 
1,407	 -52,831	 -0,113	 -40,578	 100,600	 
1,406	 -52,815	 -0,112	 -40,570	 100,700	 
1,406	 -52,805	 -0,112	 -40,562	 100,800	 
1,406	 -52,798	 -0,112	 -40,557	 100,900	 
1,405	 -52,784	 -0,113	 -40,546	 101,000	 
1,405	 -52,777	 -0,112	 -40,541	 101,100	 
1,405	 -52,769	 -0,113	 -40,536	 101,200	 
1,405	 -52,754	 -0,112	 -40,526	 101,300	 
1,405	 -52,747	 -0,113	 -40,518	 101,400	 
1,403	 -52,734	 -0,113	 -40,509	 101,500	 
1,403	 -52,726	 -0,113	 -40,504	 101,600	 
1,404	 -52,718	 -0,113	 -40,496	 101,700	 
1,405	 -52,706	 -0,113	 -40,487	 101,800	 
1,405	 -52,695	 -0,113	 -40,481	 101,900	 
1,407	 -52,684	 -0,113	 -40,475	 102,000	 
1,406	 -52,674	 -0,113	 -40,462	 102,100	 
1,402	 -52,661	 -0,113	 -40,456	 102,200	 
1,403	 -52,658	 -0,113	 -40,453	 102,300	 
1,402	 -52,642	 -0,113	 -40,442	 102,400	 
1,403	 -52,636	 -0,113	 -40,435	 102,500	 
1,404	 -52,625	 -0,112	 -40,431	 102,600	 
1,402	 -52,615	 -0,113	 -40,421	 102,700	 
1,403	 -52,607	 -0,112	 -40,412	 102,800	 
1,400	 -52,600	 -0,112	 -40,406	 102,900	 
1,399	 -52,583	 -0,113	 -40,398	 103,000	 
1,401	 -52,577	 -0,113	 -40,388	 103,100	 
1,400	 -52,564	 -0,112	 -40,378	 103,200	 
1,400	 -52,558	 -0,113	 -40,375	 103,300	 
1,397	 -52,549	 -0,113	 -40,366	 103,400	 
1,398	 -52,534	 -0,112	 -40,358	 103,500	 
1,396	 -52,530	 -0,112	 -40,350	 103,600	 
1,393	 -52,516	 -0,113	 -40,344	 103,700	 
1,396	 -52,505	 -0,113	 -40,333	 103,800	 
1,396	 -52,497	 -0,113	 -40,329	 103,900	 
1,394	 -52,486	 -0,113	 -40,322	 104,000	 
1,394	 -52,474	 -0,112	 -40,314	 104,100	 
1,393	 -52,466	 -0,113	 -40,305	 104,200	 
1,392	 -52,453	 -0,113	 -40,298	 104,300	 
1,392	 -52,450	 -0,112	 -40,290	 104,400	 
1,390	 -52,427	 -0,113	 -40,282	 104,500	 
1,389	 -52,426	 -0,112	 -40,274	 104,600	 
1,388	 -52,417	 -0,113	 -40,268	 104,700	 
1,387	 -52,406	 -0,113	 -40,257	 104,800	 
1,388	 -52,396	 -0,112	 -40,246	 104,900	 
1,386	 -52,389	 -0,113	 -40,241	 105,000	 
1,385	 -52,375	 -0,113	 -40,235	 105,100	 
1,384	 -52,364	 -0,112	 -40,224	 105,200	 
1,384	 -52,352	 -0,113	 -40,219	 105,300	 
1,382	 -52,347	 -0,113	 -40,208	 105,400	 
1,381	 -52,336	 -0,113	 -40,200	 105,500	 
1,380	 -52,328	 -0,113	 -40,195	 105,600	 
1,378	 -52,318	 -0,113	 -40,189	 105,700	 
1,376	 -52,303	 -0,113	 -40,181	 105,800	 
1,375	 -52,294	 -0,112	 -40,171	 105,900	 
1,373	 -52,285	 -0,112	 -40,167	 106,000	 
1,373	 -52,279	 -0,113	 -40,158	 106,100	 
1,372	 -52,269	 -0,113	 -40,148	 106,200	 
1,371	 -52,255	 -0,113	 -40,143	 106,300	 
1,369	 -52,247	 -0,113	 -40,132	 106,400	 
1,368	 -52,238	 -0,112	 -40,126	 106,500	 
1,365	 -52,226	 -0,113	 -40,118	 106,600	 
1,365	 -52,217	 -0,112	 -40,109	 106,700	 
1,361	 -52,206	 -0,112	 -40,105	 106,800	 
1,360	 -52,194	 -0,112	 -40,097	 106,900	 
1,359	 -52,188	 -0,113	 -40,088	 107,000	 
1,359	 -52,176	 -0,113	 -40,081	 107,100	 
1,358	 -52,167	 -0,113	 -40,068	 107,200	 
1,355	 -52,155	 -0,113	 -40,068	 107,300	 
1,353	 -52,146	 -0,113	 -40,059	 107,400	 
1,351	 -52,135	 -0,112	 -40,052	 107,500	 
1,351	 -52,125	 -0,112	 -40,043	 107,600	 
1,346	 -52,120	 -0,113	 -40,035	 107,700	 
1,346	 -52,106	 -0,113	 -40,030	 107,800	 
1,343	 -52,094	 -0,113	 -40,021	 107,900	 
1,341	 -52,086	 -0,113	 -40,013	 108,000	 
1,341	 -52,072	 -0,113	 -40,006	 108,100	 
1,337	 -52,064	 -0,112	 -39,997	 108,200	 
1,335	 -52,058	 -0,112	 -39,987	 108,300	 
1,335	 -52,045	 -0,113	 -39,982	 108,400	 
1,332	 -52,037	 -0,113	 -39,974	 108,500	 
1,330	 -52,026	 -0,112	 -39,965	 108,600	 
1,330	 -52,013	 -0,113	 -39,960	 108,700	 
1,326	 -52,009	 -0,113	 -39,954	 108,800	 
1,324	 -51,995	 -0,113	 -39,945	 108,900	 
1,322	 -51,991	 -0,113	 -39,937	 109,000	 
1,320	 -51,974	 -0,113	 -39,931	 109,100	 
1,318	 -51,967	 -0,113	 -39,919	 109,200	 
1,317	 -51,958	 -0,112	 -39,916	 109,300	 
1,315	 -51,945	 -0,113	 -39,905	 109,400	 
1,313	 -51,939	 -0,112	 -39,895	 109,500	 
1,310	 -51,925	 -0,113	 -39,892	 109,600	 
1,307	 -51,914	 -0,113	 -39,887	 109,700	 
1,308	 -51,905	 -0,113	 -39,878	 109,800	 
1,303	 -51,895	 -0,113	 -39,867	 109,900	 
1,300	 -51,887	 -0,113	 -39,862	 110,000	 
1,300	 -51,875	 -0,113	 -39,851	 110,100	 
1,296	 -51,866	 -0,112	 -39,845	 110,200	 
1,293	 -51,852	 -0,113	 -39,838	 110,300	 
1,292	 -51,842	 -0,113	 -39,828	 110,400	 
1,289	 -51,834	 -0,112	 -39,821	 110,500	 
1,286	 -51,826	 -0,113	 -39,814	 110,600	 
1,285	 -51,812	 -0,113	 -39,806	 110,700	 
1,284	 -51,805	 -0,113	 -39,801	 110,800	 
1,282	 -51,788	 -0,113	 -39,792	 110,900	 
1,281	 -51,784	 -0,113	 -39,782	 111,000	 
1,278	 -51,777	 -0,112	 -39,777	 111,100	 
1,279	 -51,768	 -0,112	 -39,766	 111,200	 
1,276	 -51,756	 -0,113	 -39,764	 111,300	 
1,273	 -51,744	 -0,113	 -39,753	 111,400	 
1,273	 -51,734	 -0,112	 -39,746	 111,500	 
1,270	 -51,724	 -0,112	 -39,738	 111,600	 
1,267	 -51,714	 -0,113	 -39,733	 111,700	 
1,267	 -51,706	 -0,113	 -39,720	 111,800	 
1,266	 -51,690	 -0,113	 -39,717	 111,900	 
1,261	 -51,685	 -0,113	 -39,709	 112,000	 
1,261	 -51,671	 -0,112	 -39,702	 112,100	 
1,260	 -51,664	 -0,113	 -39,691	 112,200	 
1,256	 -51,660	 -0,113	 -39,685	 112,300	 
1,256	 -51,648	 -0,113	 -39,674	 112,400	 
1,256	 -51,635	 -0,113	 -39,669	 112,500	 
1,253	 -51,629	 -0,113	 -39,658	 112,600	 
1,251	 -51,615	 -0,112	 -39,647	 112,700	 
1,250	 -51,606	 -0,113	 -39,641	 112,800	 
1,248	 -51,599	 -0,113	 -39,636	 112,900	 
1,246	 -51,586	 -0,113	 -39,625	 113,000	 
1,246	 -51,568	 -0,113	 -39,618	 113,100	 
1,244	 -51,567	 -0,113	 -39,614	 113,200	 
1,242	 -51,558	 -0,113	 -39,599	 113,300	 
1,241	 -51,544	 -0,112	 -39,597	 113,400	 
1,240	 -51,532	 -0,113	 -39,584	 113,500	 
1,239	 -51,524	 -0,113	 -39,578	 113,600	 
1,236	 -51,510	 -0,112	 -39,568	 113,700	 
1,235	 -51,502	 -0,113	 -39,560	 113,800	 
1,235	 -51,496	 -0,113	 -39,555	 113,900	 
1,234	 -51,485	 -0,112	 -39,545	 114,000	 
1,234	 -51,475	 -0,113	 -39,538	 114,100	 
1,233	 -51,466	 -0,113	 -39,532	 114,200	 
1,232	 -51,457	 -0,113	 -39,525	 114,300	 
1,231	 -51,446	 -0,113	 -39,516	 114,400	 
1,231	 -51,434	 -0,112	 -39,508	 114,500	 
1,232	 -51,425	 -0,112	 -39,503	 114,600	 
1,230	 -51,415	 -0,113	 -39,492	 114,700	 
1,230	 -51,405	 -0,113	 -39,486	 114,800	 
1,229	 -51,396	 -0,113	 -39,479	 114,900	 
1,229	 -51,385	 -0,112	 -39,468	 115,000	 
1,229	 -51,375	 -0,113	 -39,463	 115,100	 
1,230	 -51,366	 -0,113	 -39,455	 115,200	 
1,229	 -51,355	 -0,113	 -39,446	 115,300	 
1,228	 -51,346	 -0,113	 -39,440	 115,400	 
1,227	 -51,336	 -0,113	 -39,432	 115,500	 
1,228	 -51,324	 -0,112	 -39,425	 115,600	 
1,227	 -51,313	 -0,112	 -39,418	 115,700	 
1,228	 -51,304	 -0,113	 -39,409	 115,800	 
1,228	 -51,293	 -0,113	 -39,397	 115,900	 
1,227	 -51,281	 -0,112	 -39,393	 116,000	 
1,225	 -51,275	 -0,113	 -39,384	 116,100	 
1,226	 -51,264	 -0,112	 -39,378	 116,200	 
1,225	 -51,254	 -0,112	 -39,371	 116,300	 
1,225	 -51,246	 -0,113	 -39,362	 116,400	 
1,226	 -51,233	 -0,112	 -39,356	 116,500	 
1,225	 -51,226	 -0,112	 -39,347	 116,600	 
1,225	 -51,218	 -0,113	 -39,342	 116,700	 
1,226	 -51,202	 -0,113	 -39,333	 116,800	 
1,226	 -51,197	 -0,113	 -39,326	 116,900	 
1,223	 -51,183	 -0,112	 -39,315	 117,000	 
1,224	 -51,176	 -0,113	 -39,311	 117,100	 
1,224	 -51,167	 -0,113	 -39,303	 117,200	 
1,224	 -51,154	 -0,113	 -39,292	 117,300	 
1,226	 -51,147	 -0,113	 -39,287	 117,400	 
1,226	 -51,139	 -0,112	 -39,282	 117,500	 
1,226	 -51,124	 -0,113	 -39,269	 117,600	 
1,227	 -51,116	 -0,113	 -39,266	 117,700	 
1,225	 -51,103	 -0,113	 -39,258	 117,800	 
1,225	 -51,096	 -0,113	 -39,248	 117,900	 
1,226	 -51,085	 -0,112	 -39,245	 118,000	 
1,227	 -51,077	 -0,113	 -39,233	 118,100	 
1,227	 -51,065	 -0,112	 -39,227	 118,200	 
1,228	 -51,052	 -0,113	 -39,220	 118,300	 
1,228	 -51,047	 -0,112	 -39,213	 118,400	 
1,228	 -51,035	 -0,112	 -39,205	 118,500	 
1,228	 -51,024	 -0,113	 -39,196	 118,600	 
1,228	 -51,017	 -0,113	 -39,189	 118,700	 
1,228	 -51,003	 -0,112	 -39,177	 118,800	 
1,229	 -50,995	 -0,113	 -39,174	 118,900	 
1,228	 -50,985	 -0,113	 -39,165	 119,000	 
1,230	 -50,974	 -0,113	 -39,155	 119,100	 
1,229	 -50,966	 -0,112	 -39,150	 119,200	 
1,230	 -50,956	 -0,113	 -39,142	 119,300	 
1,230	 -50,944	 -0,112	 -39,135	 119,400	 
1,230	 -50,934	 -0,113	 -39,128	 119,500	 
1,229	 -50,926	 -0,113	 -39,121	 119,600	 
1,230	 -50,915	 -0,112	 -39,111	 119,700	 
1,233	 -50,904	 -0,112	 -39,106	 119,800	 
1,230	 -50,897	 -0,113	 -39,098	 119,900	 
1,232	 -50,883	 -0,113	 -39,089	 120,000	 
1,233	 -50,872	 -0,113	 -39,084	 120,100	 
1,232	 -50,866	 -0,112	 -39,076	 120,200	 
1,233	 -50,854	 -0,112	 -39,066	 120,300	 
1,233	 -50,843	 -0,112	 -39,058	 120,400	 
1,233	 -50,834	 -0,113	 -39,051	 120,500	 
1,235	 -50,823	 -0,113	 -39,045	 120,600	 
1,235	 -50,815	 -0,113	 -39,038	 120,700	 
1,235	 -50,802	 -0,112	 -39,026	 120,800	 
1,235	 -50,795	 -0,112	 -39,021	 120,900	 
1,237	 -50,787	 -0,113	 -39,011	 121,000	 
1,236	 -50,774	 -0,113	 -39,004	 121,100	 
1,237	 -50,765	 -0,112	 -38,999	 121,200	 
1,237	 -50,754	 -0,112	 -38,990	 121,300	 
1,236	 -50,744	 -0,113	 -38,983	 121,400	 
1,238	 -50,738	 -0,112	 -38,977	 121,500	 
1,237	 -50,726	 -0,112	 -38,970	 121,600	 
1,237	 -50,715	 -0,113	 -38,957	 121,700	 
1,239	 -50,707	 -0,113	 -38,948	 121,800	 
1,239	 -50,691	 -0,113	 -38,940	 121,900	 
1,239	 -50,684	 -0,112	 -38,933	 122,000	 
1,240	 -50,676	 -0,113	 -38,928	 122,100	 
1,240	 -50,664	 -0,113	 -38,918	 122,200	 
1,241	 -50,655	 -0,113	 -38,910	 122,300	 
1,242	 -50,646	 -0,113	 -38,902	 122,400	 
1,242	 -50,634	 -0,112	 -38,894	 122,500	 
1,242	 -50,625	 -0,112	 -38,887	 122,600	 
1,243	 -50,615	 -0,113	 -38,879	 122,700	 
1,242	 -50,609	 -0,113	 -38,872	 122,800	 
1,245	 -50,592	 -0,113	 -38,864	 122,900	 
1,246	 -50,585	 -0,113	 -38,858	 123,000	 
1,244	 -50,577	 -0,113	 -38,848	 123,100	 
1,245	 -50,563	 -0,113	 -38,841	 123,200	 
1,245	 -50,554	 -0,112	 -38,832	 123,300	 
1,246	 -50,545	 -0,113	 -38,828	 123,400	 
1,246	 -50,531	 -0,112	 -38,817	 123,500	 
1,248	 -50,524	 -0,113	 -38,811	 123,600	 
1,248	 -50,512	 -0,113	 -38,806	 123,700	 
1,248	 -50,503	 -0,113	 -38,798	 123,800	 
1,249	 -50,494	 -0,112	 -38,791	 123,900	 
1,249	 -50,484	 -0,113	 -38,780	 124,000	 
1,249	 -50,474	 -0,113	 -38,774	 124,100	 
1,251	 -50,461	 -0,112	 -38,767	 124,200	 
1,250	 -50,456	 -0,113	 -38,758	 124,300	 
1,251	 -50,444	 -0,113	 -38,750	 124,400	 
1,252	 -50,432	 -0,113	 -38,745	 124,500	 
1,253	 -50,427	 -0,113	 -38,736	 124,600	 
1,253	 -50,415	 -0,112	 -38,729	 124,700	 
1,254	 -50,405	 -0,113	 -38,720	 124,800	 
1,253	 -50,398	 -0,113	 -38,714	 124,900	 
1,254	 -50,382	 -0,112	 -38,708	 125,000	 
1,255	 -50,374	 -0,112	 -38,699	 125,100	 
1,255	 -50,364	 -0,113	 -38,694	 125,200	 
1,257	 -50,353	 -0,112	 -38,677	 125,300	 
1,257	 -50,344	 -0,113	 -38,672	 125,400	 
1,257	 -50,333	 -0,113	 -38,666	 125,500	 
1,257	 -50,323	 -0,112	 -38,655	 125,600	 
1,257	 -50,314	 -0,112	 -38,649	 125,700	 
1,258	 -50,305	 -0,112	 -38,640	 125,800	 
1,258	 -50,295	 -0,113	 -38,633	 125,900	 
1,259	 -50,281	 -0,112	 -38,629	 126,000	 
1,260	 -50,274	 -0,113	 -38,619	 126,100	 
1,260	 -50,263	 -0,112	 -38,611	 126,200	 
1,262	 -50,251	 -0,113	 -38,602	 126,300	 
1,262	 -50,245	 -0,113	 -38,596	 126,400	 
1,262	 -50,235	 -0,113	 -38,586	 126,500	 
1,263	 -50,222	 -0,113	 -38,580	 126,600	 
1,263	 -50,214	 -0,113	 -38,572	 126,700	 
1,263	 -50,204	 -0,113	 -38,563	 126,800	 
1,265	 -50,196	 -0,113	 -38,558	 126,900	 
1,265	 -50,183	 -0,113	 -38,551	 127,000	 
1,266	 -50,172	 -0,113	 -38,539	 127,100	 
1,266	 -50,164	 -0,113	 -38,535	 127,200	 
1,266	 -50,155	 -0,112	 -38,526	 127,300	 
1,267	 -50,144	 -0,113	 -38,517	 127,400	 
1,268	 -50,135	 -0,112	 -38,512	 127,500	 
1,268	 -50,123	 -0,113	 -38,503	 127,600	 
1,268	 -50,118	 -0,113	 -38,499	 127,700	 
1,268	 -50,105	 -0,113	 -38,489	 127,800	 
1,269	 -50,097	 -0,112	 -38,481	 127,900	 
1,270	 -50,082	 -0,112	 -38,475	 128,000	 
1,270	 -50,073	 -0,112	 -38,466	 128,100	 
1,271	 -50,066	 -0,113	 -38,460	 128,200	 
1,272	 -50,054	 -0,113	 -38,452	 128,300	 
1,272	 -50,046	 -0,113	 -38,443	 128,400	 
1,272	 -50,033	 -0,113	 -38,437	 128,500	 
1,273	 -50,023	 -0,112	 -38,428	 128,600	 
1,273	 -50,016	 -0,113	 -38,421	 128,700	 
1,274	 -50,003	 -0,113	 -38,413	 128,800	 
1,275	 -49,993	 -0,113	 -38,405	 128,900	 
1,275	 -49,984	 -0,113	 -38,396	 129,000	 
1,276	 -49,972	 -0,113	 -38,389	 129,100	 
1,276	 -49,965	 -0,112	 -38,380	 129,200	 
1,277	 -49,954	 -0,113	 -38,377	 129,300	 
1,277	 -49,944	 -0,113	 -38,368	 129,400	 
1,278	 -49,935	 -0,112	 -38,355	 129,500	 
1,277	 -49,925	 -0,113	 -38,353	 129,600	 
1,278	 -49,915	 -0,113	 -38,344	 129,700	 
1,279	 -49,901	 -0,112	 -38,337	 129,800	 
1,279	 -49,894	 -0,113	 -38,330	 129,900	 
1,279	 -49,887	 -0,112	 -38,321	 130,000	 
1,279	 -49,873	 -0,113	 -38,313	 130,100	 
1,280	 -49,866	 -0,112	 -38,309	 130,200	 
1,281	 -49,853	 -0,112	 -38,295	 130,300	 
1,281	 -49,842	 -0,112	 -38,287	 130,400	 
1,282	 -49,834	 -0,112	 -38,280	 130,500	 
1,282	 -49,825	 -0,113	 -38,274	 130,600	 
1,282	 -49,815	 -0,113	 -38,263	 130,700	 
1,283	 -49,803	 -0,112	 -38,256	 130,800	 
1,284	 -49,794	 -0,113	 -38,251	 130,900	 
1,284	 -49,782	 -0,112	 -38,241	 131,000	 
1,285	 -49,775	 -0,113	 -38,234	 131,100	 
1,285	 -49,765	 -0,113	 -38,227	 131,200	 
1,285	 -49,753	 -0,113	 -38,218	 131,300	 
1,285	 -49,745	 -0,113	 -38,212	 131,400	 
1,286	 -49,733	 -0,112	 -38,201	 131,500	 
1,287	 -49,724	 -0,113	 -38,197	 131,600	 
1,288	 -49,715	 -0,113	 -38,187	 131,700	 
1,288	 -49,704	 -0,113	 -38,179	 131,800	 
1,288	 -49,695	 -0,113	 -38,172	 131,900	 
1,290	 -49,684	 -0,113	 -38,165	 132,000	 
1,289	 -49,676	 -0,113	 -38,159	 132,100	 
1,289	 -49,663	 -0,112	 -38,149	 132,200	 
1,289	 -49,657	 -0,113	 -38,142	 132,300	 
1,290	 -49,646	 -0,113	 -38,133	 132,400	 
1,292	 -49,634	 -0,113	 -38,125	 132,500	 
1,292	 -49,627	 -0,112	 -38,120	 132,600	 
1,292	 -49,614	 -0,113	 -38,111	 132,700	 
1,292	 -49,604	 -0,112	 -38,099	 132,800	 
1,291	 -49,594	 -0,113	 -38,096	 132,900	 
1,293	 -49,585	 -0,113	 -38,089	 133,000	 
1,294	 -49,576	 -0,113	 -38,078	 133,100	 
1,295	 -49,563	 -0,113	 -38,073	 133,200	 
1,293	 -49,555	 -0,113	 -38,065	 133,300	 
1,294	 -49,546	 -0,113	 -38,061	 133,400	 
1,295	 -49,532	 -0,113	 -38,051	 133,500	 
1,295	 -49,525	 -0,112	 -38,041	 133,600	 
1,296	 -49,514	 -0,113	 -38,034	 133,700	 
1,297	 -49,508	 -0,113	 -38,028	 133,800	 
1,298	 -49,495	 -0,113	 -38,022	 133,900	 
1,297	 -49,482	 -0,113	 -38,010	 134,000	 
1,298	 -49,475	 -0,113	 -38,004	 134,100	 
1,298	 -49,465	 -0,113	 -37,997	 134,200	 
1,300	 -49,458	 -0,113	 -37,991	 134,300	 
1,300	 -49,446	 -0,113	 -37,984	 134,400	 
1,301	 -49,436	 -0,113	 -37,974	 134,500	 
1,299	 -49,426	 -0,113	 -37,967	 134,600	 
1,302	 -49,415	 -0,112	 -37,958	 134,700	 
1,302	 -49,407	 -0,112	 -37,951	 134,800	 
1,303	 -49,396	 -0,113	 -37,946	 134,900	 
1,303	 -49,382	 -0,113	 -37,939	 135,000	 
1,302	 -49,374	 -0,112	 -37,930	 135,100	 
1,302	 -49,364	 -0,113	 -37,923	 135,200	 
1,304	 -49,352	 -0,113	 -37,914	 135,300	 
1,304	 -49,346	 -0,112	 -37,906	 135,400	 
1,304	 -49,335	 -0,113	 -37,897	 135,500	 
1,305	 -49,325	 -0,112	 -37,888	 135,600	 
1,305	 -49,314	 -0,112	 -37,883	 135,700	 
1,305	 -49,303	 -0,113	 -37,877	 135,800	 
1,305	 -49,294	 -0,112	 -37,867	 135,900	 
1,307	 -49,285	 -0,112	 -37,860	 136,000	 
1,307	 -49,275	 -0,112	 -37,854	 136,100	 
1,307	 -49,266	 -0,113	 -37,844	 136,200	 
1,308	 -49,254	 -0,113	 -37,838	 136,300	 
1,307	 -49,247	 -0,113	 -37,829	 136,400	 
1,308	 -49,234	 -0,113	 -37,823	 136,500	 
1,310	 -49,224	 -0,113	 -37,814	 136,600	 
1,311	 -49,217	 -0,112	 -37,808	 136,700	 
1,309	 -49,208	 -0,113	 -37,800	 136,800	 
1,311	 -49,196	 -0,112	 -37,794	 136,900	 
1,312	 -49,186	 -0,113	 -37,787	 137,000	 
1,310	 -49,175	 -0,113	 -37,778	 137,100	 
1,312	 -49,163	 -0,113	 -37,767	 137,200	 
1,312	 -49,153	 -0,112	 -37,762	 137,300	 
1,311	 -49,146	 -0,113	 -37,754	 137,400	 
1,305	 -49,137	 -0,112	 -37,743	 137,500	 
1,306	 -49,126	 -0,113	 -37,741	 137,600	 
1,309	 -49,117	 -0,113	 -37,734	 137,700	 
1,311	 -49,106	 -0,113	 -37,726	 137,800	 
1,311	 -49,095	 -0,113	 -37,717	 137,900	 
1,313	 -49,088	 -0,113	 -37,706	 138,000	 
1,314	 -49,078	 -0,113	 -37,697	 138,100	 
1,314	 -49,069	 -0,113	 -37,691	 138,200	 
1,315	 -49,058	 -0,113	 -37,682	 138,300	 
1,316	 -49,046	 -0,112	 -37,673	 138,400	 
1,316	 -49,043	 -0,113	 -37,667	 138,500	 
1,317	 -49,029	 -0,113	 -37,659	 138,600	 
1,317	 -49,014	 -0,113	 -37,649	 138,700	 
1,318	 -49,013	 -0,113	 -37,640	 138,800	 
1,318	 -48,997	 -0,113	 -37,631	 138,900	 
1,318	 -48,985	 -0,112	 -37,622	 139,000	 
1,317	 -48,978	 -0,112	 -37,618	 139,100	 
1,318	 -48,966	 -0,113	 -37,609	 139,200	 
1,319	 -48,961	 -0,113	 -37,602	 139,300	 
1,320	 -48,946	 -0,113	 -37,595	 139,400	 
1,320	 -48,940	 -0,112	 -37,585	 139,500	 
1,319	 -48,930	 -0,113	 -37,581	 139,600	 
1,320	 -48,914	 -0,113	 -37,571	 139,700	 
1,320	 -48,907	 -0,112	 -37,564	 139,800	 
1,321	 -48,898	 -0,112	 -37,557	 139,900	 
1,322	 -48,886	 -0,113	 -37,546	 140,000	 
1,322	 -48,876	 -0,113	 -37,542	 140,100	 
1,322	 -48,864	 -0,113	 -37,534	 140,200	 
1,322	 -48,857	 -0,113	 -37,526	 140,300	 
1,323	 -48,846	 -0,112	 -37,519	 140,400	 
1,324	 -48,839	 -0,112	 -37,513	 140,500	 
1,324	 -48,828	 -0,113	 -37,504	 140,600	 
1,325	 -48,814	 -0,113	 -37,497	 140,700	 
1,325	 -48,810	 -0,113	 -37,489	 140,800	 
1,323	 -48,798	 -0,112	 -37,480	 140,900	 
1,325	 -48,786	 -0,113	 -37,472	 141,000	 
1,326	 -48,781	 -0,113	 -37,463	 141,100	 
1,326	 -48,765	 -0,113	 -37,457	 141,200	 
1,327	 -48,755	 -0,113	 -37,449	 141,300	 
1,326	 -48,746	 -0,113	 -37,441	 141,400	 
1,326	 -48,737	 -0,113	 -37,436	 141,500	 
1,328	 -48,726	 -0,112	 -37,426	 141,600	 
1,328	 -48,719	 -0,113	 -37,420	 141,700	 
1,329	 -48,707	 -0,112	 -37,411	 141,800	 
1,329	 -48,696	 -0,113	 -37,401	 141,900	 
1,329	 -48,687	 -0,113	 -37,396	 142,000	 
1,328	 -48,678	 -0,113	 -37,390	 142,100	 
1,329	 -48,668	 -0,112	 -37,382	 142,200	 
1,330	 -48,656	 -0,113	 -37,373	 142,300	 
1,329	 -48,650	 -0,113	 -37,366	 142,400	 
1,330	 -48,636	 -0,113	 -37,360	 142,500	 
1,330	 -48,629	 -0,113	 -37,349	 142,600	 
1,331	 -48,619	 -0,112	 -37,344	 142,700	 
1,330	 -48,606	 -0,112	 -37,335	 142,800	 
1,331	 -48,598	 -0,112	 -37,327	 142,900	 
1,332	 -48,589	 -0,113	 -37,320	 143,000	 
1,333	 -48,578	 -0,113	 -37,315	 143,100	 
1,333	 -48,568	 -0,113	 -37,307	 143,200	 
1,333	 -48,557	 -0,112	 -37,298	 143,300	 
1,333	 -48,550	 -0,113	 -37,290	 143,400	 
1,333	 -48,536	 -0,112	 -37,283	 143,500	 
1,332	 -48,526	 -0,112	 -37,277	 143,600	 
1,333	 -48,518	 -0,113	 -37,270	 143,700	 
1,334	 -48,506	 -0,113	 -37,259	 143,800	 
1,335	 -48,499	 -0,112	 -37,252	 143,900	 
1,335	 -48,487	 -0,112	 -37,243	 144,000	 
1,333	 -48,474	 -0,113	 -37,236	 144,100	 
1,336	 -48,468	 -0,112	 -37,230	 144,200	 
1,335	 -48,460	 -0,113	 -37,222	 144,300	 
1,336	 -48,448	 -0,113	 -37,216	 144,400	 
1,336	 -48,437	 -0,113	 -37,207	 144,500	 
1,337	 -48,427	 -0,113	 -37,199	 144,600	 
1,335	 -48,415	 -0,113	 -37,192	 144,700	 
1,336	 -48,407	 -0,113	 -37,182	 144,800	 
1,337	 -48,399	 -0,113	 -37,177	 144,900	 
1,336	 -48,389	 -0,113	 -37,169	 145,000	 
1,338	 -48,376	 -0,113	 -37,158	 145,100	 
1,338	 -48,368	 -0,113	 -37,153	 145,200	 
1,338	 -48,360	 -0,113	 -37,145	 145,300	 
1,338	 -48,344	 -0,113	 -37,136	 145,400	 
1,339	 -48,339	 -0,113	 -37,130	 145,500	 
1,340	 -48,328	 -0,113	 -37,123	 145,600	 
1,339	 -48,319	 -0,113	 -37,117	 145,700	 
1,340	 -48,307	 -0,113	 -37,108	 145,800	 
1,338	 -48,295	 -0,113	 -37,099	 145,900	 
1,340	 -48,286	 -0,112	 -37,093	 146,000	 
1,339	 -48,276	 -0,112	 -37,089	 146,100	 
1,340	 -48,267	 -0,113	 -37,079	 146,200	 
1,340	 -48,259	 -0,113	 -37,069	 146,300	 
1,340	 -48,246	 -0,112	 -37,059	 146,400	 
1,340	 -48,239	 -0,113	 -37,055	 146,500	 
1,341	 -48,226	 -0,113	 -37,044	 146,600	 
1,341	 -48,216	 -0,113	 -37,039	 146,700	 
1,341	 -48,206	 -0,113	 -37,032	 146,800	 
1,342	 -48,196	 -0,112	 -37,025	 146,900	 
1,342	 -48,188	 -0,113	 -37,016	 147,000	 
1,342	 -48,177	 -0,112	 -37,008	 147,100	 
1,341	 -48,166	 -0,113	 -37,000	 147,200	 
1,341	 -48,158	 -0,113	 -36,991	 147,300	 
1,342	 -48,145	 -0,113	 -36,981	 147,400	 
1,343	 -48,137	 -0,113	 -36,974	 147,500	 
1,343	 -48,127	 -0,113	 -36,969	 147,600	 
1,344	 -48,119	 -0,113	 -36,960	 147,700	 
1,343	 -48,109	 -0,113	 -36,950	 147,800	 
1,344	 -48,097	 -0,113	 -36,945	 147,900	 
1,344	 -48,086	 -0,113	 -36,935	 148,000	 
1,343	 -48,079	 -0,113	 -36,930	 148,100	 
1,344	 -48,068	 -0,112	 -36,920	 148,200	 
1,344	 -48,054	 -0,112	 -36,909	 148,300	 
1,344	 -48,049	 -0,113	 -36,906	 148,400	 
1,344	 -48,036	 -0,113	 -36,899	 148,500	 
1,343	 -48,028	 -0,113	 -36,891	 148,600	 
1,344	 -48,014	 -0,113	 -36,884	 148,700	 
1,344	 -48,006	 -0,112	 -36,876	 148,800	 
1,345	 -47,998	 -0,113	 -36,868	 148,900	 
1,345	 -47,985	 -0,112	 -36,860	 149,000	 
1,345	 -47,979	 -0,113	 -36,854	 149,100	 
1,345	 -47,967	 -0,113	 -36,844	 149,200	 
1,344	 -47,955	 -0,112	 -36,838	 149,300	 
1,346	 -47,946	 -0,112	 -36,830	 149,400	 
1,346	 -47,940	 -0,112	 -36,823	 149,500	 
1,345	 -47,928	 -0,113	 -36,812	 149,600	 
1,347	 -47,916	 -0,113	 -36,808	 149,700	 
1,346	 -47,905	 -0,113	 -36,799	 149,800	 
1,344	 -47,896	 -0,112	 -36,790	 149,900	 
1,346	 -47,884	 -0,112	 -36,784	 150,000	 
1,347	 -47,878	 -0,113	 -36,776	 150,100	 
1,346	 -47,869	 -0,113	 -36,773	 150,200	 
1,345	 -47,855	 -0,112	 -36,761	 150,300	 
1,346	 -47,849	 -0,113	 -36,752	 150,400	 
1,346	 -47,838	 -0,113	 -36,748	 150,500	 
1,347	 -47,824	 -0,113	 -36,737	 150,600	 
1,346	 -47,816	 -0,113	 -36,730	 150,700	 
1,347	 -47,807	 -0,113	 -36,721	 150,800	 
1,345	 -47,797	 -0,113	 -36,707	 150,900	 
1,347	 -47,788	 -0,113	 -36,705	 151,000	 
1,347	 -47,775	 -0,113	 -36,698	 151,100	 
1,347	 -47,760	 -0,113	 -36,687	 151,200	 
1,348	 -47,755	 -0,112	 -36,683	 151,300	 
1,347	 -47,748	 -0,112	 -36,673	 151,400	 
1,345	 -47,739	 -0,113	 -36,666	 151,500	 
1,347	 -47,729	 -0,112	 -36,657	 151,600	 
1,347	 -47,716	 -0,112	 -36,649	 151,700	 
1,347	 -47,707	 -0,113	 -36,644	 151,800	 
1,347	 -47,694	 -0,112	 -36,637	 151,900	 
1,347	 -47,690	 -0,113	 -36,628	 152,000	 
1,347	 -47,678	 -0,113	 -36,622	 152,100	 
1,347	 -47,667	 -0,113	 -36,611	 152,200	 
1,347	 -47,657	 -0,112	 -36,605	 152,300	 
1,347	 -47,646	 -0,112	 -36,599	 152,400	 
1,346	 -47,636	 -0,113	 -36,589	 152,500	 
1,347	 -47,625	 -0,113	 -36,581	 152,600	 
1,346	 -47,615	 -0,113	 -36,574	 152,700	 
1,347	 -47,607	 -0,112	 -36,569	 152,800	 
1,346	 -47,598	 -0,113	 -36,562	 152,900	 
1,347	 -47,590	 -0,112	 -36,553	 153,000	 
1,346	 -47,577	 -0,113	 -36,545	 153,100	 
1,346	 -47,561	 -0,112	 -36,536	 153,200	 
1,346	 -47,558	 -0,112	 -36,531	 153,300	 
1,346	 -47,546	 -0,113	 -36,522	 153,400	 
1,346	 -47,537	 -0,113	 -36,516	 153,500	 
1,347	 -47,526	 -0,112	 -36,505	 153,600	 
1,346	 -47,516	 -0,113	 -36,500	 153,700	 
1,345	 -47,509	 -0,112	 -36,492	 153,800	 
1,345	 -47,495	 -0,113	 -36,483	 153,900	 
1,345	 -47,488	 -0,113	 -36,477	 154,000	 
1,346	 -47,477	 -0,113	 -36,466	 154,100	 
1,346	 -47,465	 -0,113	 -36,462	 154,200	 
1,346	 -47,456	 -0,112	 -36,452	 154,300	 
1,346	 -47,449	 -0,113	 -36,445	 154,400	 
1,345	 -47,438	 -0,113	 -36,438	 154,500	 
1,346	 -47,424	 -0,112	 -36,428	 154,600	 
1,345	 -47,417	 -0,113	 -36,421	 154,700	 
1,345	 -47,408	 -0,113	 -36,413	 154,800	 
1,344	 -47,396	 -0,112	 -36,407	 154,900	 
1,345	 -47,385	 -0,113	 -36,399	 155,000	 
1,343	 -47,377	 -0,112	 -36,389	 155,100	 
1,343	 -47,368	 -0,113	 -36,382	 155,200	 
1,346	 -47,355	 -0,112	 -36,374	 155,300	 
1,344	 -47,347	 -0,112	 -36,369	 155,400	 
1,343	 -47,335	 -0,113	 -36,363	 155,500	 
1,343	 -47,326	 -0,112	 -36,350	 155,600	 
1,343	 -47,316	 -0,113	 -36,347	 155,700	 
1,343	 -47,305	 -0,113	 -36,337	 155,800	 
1,343	 -47,296	 -0,113	 -36,328	 155,900	 
1,341	 -47,285	 -0,112	 -36,320	 156,000	 
1,341	 -47,276	 -0,113	 -36,311	 156,100	 
1,341	 -47,266	 -0,113	 -36,309	 156,200	 
1,341	 -47,254	 -0,113	 -36,298	 156,300	 
1,341	 -47,247	 -0,113	 -36,289	 156,400	 
1,341	 -47,238	 -0,112	 -36,282	 156,500	 
1,340	 -47,225	 -0,113	 -36,274	 156,600	 
1,340	 -47,217	 -0,113	 -36,268	 156,700	 
1,339	 -47,206	 -0,113	 -36,261	 156,800	 
1,340	 -47,195	 -0,113	 -36,254	 156,900	 
1,339	 -47,187	 -0,113	 -36,242	 157,000	 
1,337	 -47,171	 -0,112	 -36,233	 157,100	 
1,337	 -47,169	 -0,113	 -36,227	 157,200	 
1,337	 -47,157	 -0,112	 -36,222	 157,300	 
1,336	 -47,146	 -0,112	 -36,212	 157,400	 
1,337	 -47,137	 -0,113	 -36,205	 157,500	 
1,336	 -47,125	 -0,113	 -36,194	 157,600	 
1,335	 -47,115	 -0,113	 -36,188	 157,700	 
1,334	 -47,108	 -0,113	 -36,183	 157,800	 
1,334	 -47,094	 -0,113	 -36,175	 157,900	 
1,333	 -47,086	 -0,113	 -36,164	 158,000	 
1,334	 -47,078	 -0,113	 -36,161	 158,100	 
1,332	 -47,066	 -0,113	 -36,152	 158,200	 
1,333	 -47,055	 -0,112	 -36,141	 158,300	 
1,332	 -47,045	 -0,113	 -36,135	 158,400	 
1,332	 -47,037	 -0,112	 -36,128	 158,500	 
1,330	 -47,025	 -0,112	 -36,120	 158,600	 
1,331	 -47,016	 -0,112	 -36,113	 158,700	 
1,331	 -47,009	 -0,112	 -36,106	 158,800	 
1,330	 -46,997	 -0,113	 -36,100	 158,900	 
1,330	 -46,986	 -0,112	 -36,089	 159,000	 
1,330	 -46,977	 -0,113	 -36,084	 159,100	 
1,328	 -46,967	 -0,112	 -36,076	 159,200	 
1,327	 -46,954	 -0,113	 -36,067	 159,300	 
1,326	 -46,946	 -0,113	 -36,063	 159,400	 
1,327	 -46,934	 -0,113	 -36,052	 159,500	 
1,325	 -46,925	 -0,113	 -36,046	 159,600	 
1,325	 -46,914	 -0,112	 -36,038	 159,700	 
1,326	 -46,907	 -0,113	 -36,027	 159,800	 
1,323	 -46,896	 -0,113	 -36,023	 159,900	 
1,322	 -46,884	 -0,113	 -36,017	 160,000	 
1,322	 -46,875	 -0,113	 -36,008	 160,100	 
1,322	 -46,866	 -0,112	 -35,998	 160,200	 
1,320	 -46,855	 -0,113	 -35,993	 160,300	 
1,320	 -46,848	 -0,113	 -35,986	 160,400	 
1,320	 -46,833	 -0,112	 -35,974	 160,500	 
1,317	 -46,827	 -0,113	 -35,971	 160,600	 
1,317	 -46,815	 -0,113	 -35,963	 160,700	 
1,317	 -46,807	 -0,113	 -35,955	 160,800	 
1,315	 -46,798	 -0,112	 -35,946	 160,900	 
1,315	 -46,784	 -0,113	 -35,938	 161,000	 
1,314	 -46,775	 -0,113	 -35,931	 161,100	 
1,313	 -46,766	 -0,113	 -35,924	 161,200	 
1,312	 -46,755	 -0,113	 -35,917	 161,300	 
1,312	 -46,746	 -0,112	 -35,909	 161,400	 
1,311	 -46,735	 -0,113	 -35,902	 161,500	 
1,309	 -46,728	 -0,113	 -35,895	 161,600	 
1,309	 -46,714	 -0,113	 -35,884	 161,700	 
1,308	 -46,702	 -0,113	 -35,878	 161,800	 
1,306	 -46,699	 -0,112	 -35,871	 161,900	 
1,305	 -46,686	 -0,112	 -35,864	 162,000	 
1,306	 -46,675	 -0,113	 -35,856	 162,100	 
1,304	 -46,668	 -0,112	 -35,848	 162,200	 
1,303	 -46,657	 -0,113	 -35,841	 162,300	 
1,301	 -46,644	 -0,112	 -35,832	 162,400	 
1,301	 -46,636	 -0,113	 -35,826	 162,500	 
1,300	 -46,627	 -0,113	 -35,817	 162,600	 
1,297	 -46,614	 -0,112	 -35,813	 162,700	 
1,298	 -46,604	 -0,113	 -35,803	 162,800	 
1,296	 -46,595	 -0,112	 -35,794	 162,900	 
1,295	 -46,587	 -0,112	 -35,788	 163,000	 
1,294	 -46,575	 -0,113	 -35,780	 163,100	 
1,292	 -46,567	 -0,113	 -35,770	 163,200	 
1,290	 -46,555	 -0,113	 -35,767	 163,300	 
1,288	 -46,545	 -0,112	 -35,758	 163,400	 
1,288	 -46,537	 -0,112	 -35,747	 163,500	 
1,288	 -46,524	 -0,113	 -35,738	 163,600	 
1,286	 -46,516	 -0,113	 -35,731	 163,700	 
1,286	 -46,506	 -0,113	 -35,721	 163,800	 
1,283	 -46,495	 -0,113	 -35,714	 163,900	 
1,282	 -46,488	 -0,113	 -35,706	 164,000	 
1,280	 -46,478	 -0,112	 -35,699	 164,100	 
1,279	 -46,467	 -0,113	 -35,693	 164,200	 
1,279	 -46,457	 -0,113	 -35,679	 164,300	 
1,276	 -46,446	 -0,112	 -35,673	 164,400	 
1,276	 -46,436	 -0,113	 -35,665	 164,500	 
1,274	 -46,426	 -0,112	 -35,657	 164,600	 
1,273	 -46,414	 -0,113	 -35,651	 164,700	 
1,271	 -46,405	 -0,112	 -35,642	 164,800	 
1,271	 -46,395	 -0,112	 -35,639	 164,900	 
1,269	 -46,385	 -0,113	 -35,628	 165,000	 
1,267	 -46,376	 -0,113	 -35,621	 165,100	 
1,266	 -46,363	 -0,113	 -35,612	 165,200	 
1,264	 -46,357	 -0,113	 -35,605	 165,300	 
1,263	 -46,345	 -0,113	 -35,596	 165,400	 
1,262	 -46,339	 -0,113	 -35,589	 165,500	 
1,260	 -46,326	 -0,113	 -35,580	 165,600	 
1,259	 -46,315	 -0,113	 -35,576	 165,700	 
1,258	 -46,306	 -0,113	 -35,567	 165,800	 
1,257	 -46,296	 -0,113	 -35,557	 165,900	 
1,255	 -46,284	 -0,113	 -35,550	 166,000	 
1,252	 -46,277	 -0,112	 -35,545	 166,100	 
1,251	 -46,264	 -0,112	 -35,537	 166,200	 
1,251	 -46,256	 -0,113	 -35,530	 166,300	 
1,249	 -46,247	 -0,113	 -35,520	 166,400	 
1,246	 -46,235	 -0,113	 -35,515	 166,500	 
1,247	 -46,225	 -0,113	 -35,505	 166,600	 
1,244	 -46,214	 -0,113	 -35,498	 166,700	 
1,243	 -46,204	 -0,113	 -35,492	 166,800	 
1,241	 -46,198	 -0,112	 -35,483	 166,900	 
1,239	 -46,184	 -0,112	 -35,476	 167,000	 
1,239	 -46,177	 -0,113	 -35,465	 167,100	 
1,236	 -46,166	 -0,113	 -35,460	 167,200	 
1,235	 -46,152	 -0,113	 -35,453	 167,300	 
1,234	 -46,143	 -0,112	 -35,442	 167,400	 
1,234	 -46,135	 -0,113	 -35,437	 167,500	 
1,231	 -46,122	 -0,113	 -35,429	 167,600	 
1,230	 -46,119	 -0,112	 -35,421	 167,700	 
1,229	 -46,108	 -0,112	 -35,414	 167,800	 
1,227	 -46,096	 -0,113	 -35,407	 167,900	 
1,227	 -46,085	 -0,113	 -35,397	 168,000	 
1,225	 -46,077	 -0,113	 -35,392	 168,100	 
1,223	 -46,068	 -0,113	 -35,381	 168,200	 
1,221	 -46,053	 -0,112	 -35,377	 168,300	 
1,221	 -46,046	 -0,112	 -35,368	 168,400	 
1,220	 -46,034	 -0,112	 -35,363	 168,500	 
1,218	 -46,025	 -0,113	 -35,355	 168,600	 
1,216	 -46,017	 -0,113	 -35,345	 168,700	 
1,216	 -46,008	 -0,112	 -35,339	 168,800	 
1,213	 -45,994	 -0,112	 -35,330	 168,900	 
1,212	 -45,986	 -0,113	 -35,323	 169,000	 
1,211	 -45,971	 -0,112	 -35,316	 169,100	 
1,211	 -45,968	 -0,113	 -35,309	 169,200	 
1,209	 -45,957	 -0,113	 -35,300	 169,300	 
1,208	 -45,943	 -0,113	 -35,290	 169,400	 
1,207	 -45,934	 -0,113	 -35,284	 169,500	 
1,206	 -45,925	 -0,113	 -35,280	 169,600	 
1,203	 -45,915	 -0,113	 -35,271	 169,700	 
1,203	 -45,905	 -0,112	 -35,262	 169,800	 
1,203	 -45,895	 -0,113	 -35,256	 169,900	 
1,202	 -45,887	 -0,113	 -35,245	 170,000	 
1,200	 -45,876	 -0,112	 -35,240	 170,100	 
1,200	 -45,866	 -0,112	 -35,231	 170,200	 
1,199	 -45,855	 -0,113	 -35,223	 170,300	 
1,198	 -45,845	 -0,113	 -35,217	 170,400	 
1,198	 -45,835	 -0,112	 -35,208	 170,500	 
1,195	 -45,827	 -0,112	 -35,201	 170,600	 
1,195	 -45,815	 -0,112	 -35,195	 170,700	 
1,194	 -45,807	 -0,113	 -35,186	 170,800	 
1,193	 -45,797	 -0,113	 -35,177	 170,900	 
1,192	 -45,785	 -0,112	 -35,172	 171,000	 
1,192	 -45,777	 -0,112	 -35,160	 171,100	 
1,190	 -45,764	 -0,112	 -35,155	 171,200	 
1,189	 -45,753	 -0,113	 -35,145	 171,300	 
1,189	 -45,747	 -0,113	 -35,139	 171,400	 
1,188	 -45,735	 -0,113	 -35,133	 171,500	 
1,188	 -45,724	 -0,113	 -35,125	 171,600	 
1,186	 -45,713	 -0,113	 -35,119	 171,700	 
1,186	 -45,704	 -0,113	 -35,111	 171,800	 
1,184	 -45,691	 -0,112	 -35,103	 171,900	 
1,184	 -45,682	 -0,112	 -35,095	 172,000	 
1,184	 -45,675	 -0,112	 -35,086	 172,100	 
1,183	 -45,666	 -0,113	 -35,080	 172,200	 
1,183	 -45,651	 -0,113	 -35,073	 172,300	 
1,182	 -45,645	 -0,113	 -35,066	 172,400	 
1,181	 -45,637	 -0,112	 -35,058	 172,500	 
1,179	 -45,626	 -0,112	 -35,052	 172,600	 
1,180	 -45,612	 -0,112	 -35,041	 172,700	 
1,179	 -45,607	 -0,113	 -35,032	 172,800	 
1,178	 -45,594	 -0,113	 -35,022	 172,900	 
1,178	 -45,585	 -0,113	 -35,016	 173,000	 
1,177	 -45,573	 -0,112	 -35,007	 173,100	 
1,176	 -45,563	 -0,113	 -34,998	 173,200	 
1,176	 -45,557	 -0,113	 -34,993	 173,300	 
1,175	 -45,545	 -0,112	 -34,983	 173,400	 
1,175	 -45,536	 -0,113	 -34,976	 173,500	 
1,175	 -45,526	 -0,113	 -34,969	 173,600	 
1,174	 -45,513	 -0,113	 -34,961	 173,700	 
1,175	 -45,506	 -0,113	 -34,954	 173,800	 
1,173	 -45,495	 -0,113	 -34,945	 173,900	 
1,173	 -45,487	 -0,113	 -34,938	 174,000	 
1,172	 -45,475	 -0,112	 -34,929	 174,100	 
1,173	 -45,464	 -0,112	 -34,922	 174,200	 
1,173	 -45,453	 -0,112	 -34,916	 174,300	 
1,172	 -45,444	 -0,113	 -34,908	 174,400	 
1,172	 -45,436	 -0,112	 -34,899	 174,500	 
1,171	 -45,425	 -0,112	 -34,895	 174,600	 
1,171	 -45,415	 -0,113	 -34,887	 174,700	 
1,170	 -45,404	 -0,112	 -34,876	 174,800	 
1,171	 -45,397	 -0,112	 -34,872	 174,900	 
1,172	 -45,384	 -0,112	 -34,864	 175,000	 
1,169	 -45,376	 -0,113	 -34,855	 175,100	 
1,170	 -45,363	 -0,113	 -34,846	 175,200	 
1,170	 -45,354	 -0,113	 -34,840	 175,300	 
1,170	 -45,346	 -0,113	 -34,833	 175,400	 
1,169	 -45,333	 -0,112	 -34,826	 175,500	 
1,169	 -45,324	 -0,112	 -34,818	 175,600	 
1,169	 -45,316	 -0,112	 -34,809	 175,700	 
1,167	 -45,307	 -0,113	 -34,804	 175,800	 
1,167	 -45,294	 -0,112	 -34,790	 175,900	 
1,167	 -45,282	 -0,113	 -34,788	 176,000	 
1,167	 -45,273	 -0,112	 -34,778	 176,100	 
1,167	 -45,263	 -0,112	 -34,768	 176,200	 
1,167	 -45,256	 -0,113	 -34,759	 176,300	 
1,168	 -45,245	 -0,112	 -34,751	 176,400	 
1,166	 -45,234	 -0,113	 -34,746	 176,500	 
1,166	 -45,225	 -0,112	 -34,739	 176,600	 
1,167	 -45,216	 -0,112	 -34,730	 176,700	 
1,165	 -45,205	 -0,113	 -34,723	 176,800	 
1,165	 -45,197	 -0,113	 -34,714	 176,900	 
1,166	 -45,183	 -0,113	 -34,706	 177,000	 
1,166	 -45,172	 -0,112	 -34,700	 177,100	 
1,166	 -45,166	 -0,113	 -34,692	 177,200	 
1,165	 -45,153	 -0,112	 -34,682	 177,300	 
1,166	 -45,145	 -0,112	 -34,674	 177,400	 
1,165	 -45,135	 -0,113	 -34,667	 177,500	 
1,165	 -45,124	 -0,113	 -34,664	 177,600	 
1,165	 -45,114	 -0,113	 -34,651	 177,700	 
1,166	 -45,104	 -0,112	 -34,648	 177,800	 
1,163	 -45,094	 -0,112	 -34,638	 177,900	 
1,163	 -45,086	 -0,113	 -34,632	 178,000	 
1,164	 -45,074	 -0,113	 -34,622	 178,100	 
1,164	 -45,065	 -0,112	 -34,616	 178,200	 
1,166	 -45,056	 -0,112	 -34,610	 178,300	 
1,165	 -45,044	 -0,112	 -34,601	 178,400	 
1,164	 -45,037	 -0,113	 -34,592	 178,500	 
1,165	 -45,023	 -0,112	 -34,586	 178,600	 
1,165	 -45,017	 -0,113	 -34,579	 178,700	 
1,164	 -45,005	 -0,113	 -34,573	 178,800	 
1,164	 -44,995	 -0,113	 -34,562	 178,900	 
1,164	 -44,983	 -0,113	 -34,553	 179,000	 
1,164	 -44,973	 -0,113	 -34,546	 179,100	 
1,164	 -44,965	 -0,112	 -34,537	 179,200	 
1,164	 -44,954	 -0,113	 -34,531	 179,300	 
1,163	 -44,943	 -0,112	 -34,524	 179,400	 
1,164	 -44,936	 -0,113	 -34,513	 179,500	 
1,163	 -44,925	 -0,113	 -34,508	 179,600	 
1,164	 -44,913	 -0,113	 -34,500	 179,700	 
1,163	 -44,906	 -0,113	 -34,494	 179,800	 
1,163	 -44,892	 -0,112	 -34,485	 179,900	 
1,163	 -44,884	 -0,113	 -34,476	 180,000	 
1,163	 -44,872	 -0,112	 -34,471	 180,100	 
1,163	 -44,866	 -0,113	 -34,467	 180,200	 
1,163	 -44,853	 -0,112	 -34,450	 180,300	 
1,164	 -44,846	 -0,113	 -34,448	 180,400	 
1,164	 -44,838	 -0,112	 -34,442	 180,500	 
1,163	 -44,825	 -0,112	 -34,430	 180,600	 
1,164	 -44,814	 -0,113	 -34,426	 180,700	 
1,163	 -44,805	 -0,113	 -34,419	 180,800	 
1,163	 -44,793	 -0,113	 -34,410	 180,900	 
1,163	 -44,783	 -0,113	 -34,401	 181,000	 
1,163	 -44,776	 -0,113	 -34,396	 181,100	 
1,163	 -44,767	 -0,113	 -34,385	 181,200	 
1,162	 -44,758	 -0,113	 -34,376	 181,300	 
1,163	 -44,747	 -0,113	 -34,368	 181,400	 
1,163	 -44,733	 -0,113	 -34,360	 181,500	 
1,163	 -44,726	 -0,113	 -34,353	 181,600	 
1,163	 -44,715	 -0,113	 -34,349	 181,700	 
1,164	 -44,703	 -0,113	 -34,337	 181,800	 
1,163	 -44,694	 -0,113	 -34,331	 181,900	 
1,162	 -44,684	 -0,112	 -34,327	 182,000	 
1,162	 -44,672	 -0,113	 -34,316	 182,100	 
1,162	 -44,665	 -0,113	 -34,306	 182,200	 
1,162	 -44,652	 -0,112	 -34,300	 182,300	 
1,162	 -44,644	 -0,113	 -34,293	 182,400	 
1,162	 -44,633	 -0,113	 -34,283	 182,500	 
1,161	 -44,626	 -0,113	 -34,276	 182,600	 
1,162	 -44,615	 -0,112	 -34,267	 182,700	 
1,160	 -44,607	 -0,113	 -34,263	 182,800	 
1,162	 -44,591	 -0,112	 -34,250	 182,900	 
1,161	 -44,589	 -0,113	 -34,247	 183,000	 
1,162	 -44,576	 -0,113	 -34,239	 183,100	 
1,162	 -44,564	 -0,113	 -34,233	 183,200	 
1,162	 -44,551	 -0,112	 -34,221	 183,300	 
1,162	 -44,542	 -0,113	 -34,216	 183,400	 
1,162	 -44,536	 -0,113	 -34,208	 183,500	 
1,162	 -44,520	 -0,113	 -34,202	 183,600	 
1,162	 -44,514	 -0,113	 -34,190	 183,700	 
1,163	 -44,505	 -0,113	 -34,185	 183,800	 
1,163	 -44,492	 -0,112	 -34,177	 183,900	 
1,163	 -44,482	 -0,113	 -34,169	 184,000	 
1,163	 -44,477	 -0,112	 -34,161	 184,100	 
1,162	 -44,464	 -0,113	 -34,154	 184,200	 
1,162	 -44,455	 -0,113	 -34,148	 184,300	 
1,162	 -44,444	 -0,113	 -34,139	 184,400	 
1,162	 -44,434	 -0,113	 -34,132	 184,500	 
1,163	 -44,423	 -0,112	 -34,125	 184,600	 
1,162	 -44,412	 -0,113	 -34,117	 184,700	 
1,162	 -44,403	 -0,112	 -34,108	 184,800	 
1,163	 -44,395	 -0,112	 -34,104	 184,900	 
1,161	 -44,386	 -0,113	 -34,095	 185,000	 
1,162	 -44,375	 -0,112	 -34,086	 185,100	 
1,163	 -44,364	 -0,113	 -34,082	 185,200	 
1,161	 -44,356	 -0,112	 -34,070	 185,300	 
1,162	 -44,344	 -0,113	 -34,065	 185,400	 
1,162	 -44,331	 -0,113	 -34,058	 185,500	 
1,162	 -44,325	 -0,113	 -34,048	 185,600	 
1,163	 -44,317	 -0,113	 -34,040	 185,700	 
1,163	 -44,305	 -0,113	 -34,034	 185,800	 
1,163	 -44,295	 -0,112	 -34,026	 185,900	 
1,163	 -44,284	 -0,112	 -34,020	 186,000	 
1,164	 -44,276	 -0,113	 -34,011	 186,100	 
1,164	 -44,264	 -0,112	 -34,002	 186,200	 
1,163	 -44,254	 -0,113	 -33,994	 186,300	 
1,163	 -44,245	 -0,113	 -33,985	 186,400	 
1,162	 -44,235	 -0,113	 -33,978	 186,500	 
1,162	 -44,224	 -0,112	 -33,971	 186,600	 
1,163	 -44,214	 -0,113	 -33,962	 186,700	 
1,164	 -44,204	 -0,113	 -33,958	 186,800	 
1,163	 -44,196	 -0,113	 -33,950	 186,900	 
1,162	 -44,183	 -0,113	 -33,942	 187,000	 
1,163	 -44,175	 -0,113	 -33,933	 187,100	 
1,163	 -44,164	 -0,113	 -33,926	 187,200	 
1,163	 -44,155	 -0,113	 -33,920	 187,300	 
1,163	 -44,146	 -0,112	 -33,912	 187,400	 
1,163	 -44,135	 -0,112	 -33,905	 187,500	 
1,163	 -44,126	 -0,113	 -33,898	 187,600	 
1,163	 -44,114	 -0,112	 -33,887	 187,700	 
1,164	 -44,105	 -0,113	 -33,881	 187,800	 
1,163	 -44,096	 -0,113	 -33,873	 187,900	 
1,164	 -44,085	 -0,113	 -33,867	 188,000	 
1,162	 -44,071	 -0,113	 -33,858	 188,100	 
1,163	 -44,064	 -0,112	 -33,854	 188,200	 
1,163	 -44,053	 -0,113	 -33,845	 188,300	 
1,164	 -44,042	 -0,112	 -33,835	 188,400	 
1,164	 -44,035	 -0,113	 -33,825	 188,500	 
1,164	 -44,027	 -0,112	 -33,821	 188,600	 
1,164	 -44,012	 -0,113	 -33,812	 188,700	 
1,162	 -44,004	 -0,112	 -33,805	 188,800	 
1,163	 -43,991	 -0,112	 -33,799	 188,900	 
1,163	 -43,984	 -0,112	 -33,788	 189,000	 
1,164	 -43,975	 -0,113	 -33,777	 189,100	 
1,163	 -43,964	 -0,113	 -33,773	 189,200	 
1,162	 -43,953	 -0,112	 -33,763	 189,300	 
1,162	 -43,941	 -0,113	 -33,754	 189,400	 
1,163	 -43,936	 -0,113	 -33,747	 189,500	 
1,163	 -43,927	 -0,113	 -33,742	 189,600	 
1,162	 -43,914	 -0,113	 -33,733	 189,700	 
1,164	 -43,904	 -0,113	 -33,720	 189,800	 
1,163	 -43,896	 -0,112	 -33,711	 189,900	 
1,162	 -43,886	 -0,113	 -33,705	 190,000	 
1,163	 -43,877	 -0,113	 -33,698	 190,100	 
1,162	 -43,865	 -0,113	 -33,691	 190,200	 
1,163	 -43,856	 -0,112	 -33,682	 190,300	 
1,162	 -43,839	 -0,112	 -33,674	 190,400	 
1,163	 -43,834	 -0,112	 -33,670	 190,500	 
1,163	 -43,824	 -0,112	 -33,661	 190,600	 
1,163	 -43,816	 -0,112	 -33,654	 190,700	 
1,163	 -43,806	 -0,113	 -33,641	 190,800	 
1,164	 -43,794	 -0,113	 -33,639	 190,900	 
1,163	 -43,786	 -0,113	 -33,632	 191,000	 
1,162	 -43,776	 -0,113	 -33,624	 191,100	 
1,162	 -43,765	 -0,112	 -33,615	 191,200	 
1,163	 -43,751	 -0,112	 -33,607	 191,300	 
1,163	 -43,745	 -0,112	 -33,600	 191,400	 
1,163	 -43,735	 -0,112	 -33,591	 191,500	 
1,161	 -43,723	 -0,113	 -33,585	 191,600	 
1,162	 -43,714	 -0,113	 -33,578	 191,700	 
1,162	 -43,703	 -0,113	 -33,569	 191,800	 
1,162	 -43,696	 -0,113	 -33,561	 191,900	 
1,162	 -43,685	 -0,112	 -33,553	 192,000	 
1,163	 -43,674	 -0,113	 -33,547	 192,100	 
1,163	 -43,667	 -0,112	 -33,537	 192,200	 
1,163	 -43,655	 -0,112	 -33,535	 192,300	 
1,163	 -43,644	 -0,113	 -33,523	 192,400	 
1,163	 -43,637	 -0,112	 -33,514	 192,500	 
1,163	 -43,622	 -0,112	 -33,510	 192,600	 
1,162	 -43,618	 -0,112	 -33,503	 192,700	 
1,163	 -43,606	 -0,113	 -33,492	 192,800	 
1,163	 -43,591	 -0,113	 -33,487	 192,900	 
1,162	 -43,587	 -0,112	 -33,476	 193,000	 
1,162	 -43,574	 -0,113	 -33,473	 193,100	 
1,163	 -43,565	 -0,113	 -33,464	 193,200	 
1,163	 -43,555	 -0,113	 -33,457	 193,300	 
1,162	 -43,544	 -0,112	 -33,448	 193,400	 
1,160	 -43,534	 -0,113	 -33,440	 193,500	 
1,162	 -43,526	 -0,112	 -33,429	 193,600	 
1,162	 -43,513	 -0,113	 -33,425	 193,700	 
1,162	 -43,505	 -0,113	 -33,416	 193,800	 
1,161	 -43,494	 -0,113	 -33,413	 193,900	 
1,161	 -43,484	 -0,112	 -33,402	 194,000	 
1,161	 -43,473	 -0,112	 -33,396	 194,100	 
1,162	 -43,462	 -0,113	 -33,387	 194,200	 
1,160	 -43,457	 -0,112	 -33,379	 194,300	 
1,162	 -43,445	 -0,112	 -33,371	 194,400	 
1,161	 -43,436	 -0,113	 -33,364	 194,500	 
1,163	 -43,427	 -0,112	 -33,356	 194,600	 
1,162	 -43,416	 -0,113	 -33,352	 194,700	 
1,162	 -43,404	 -0,113	 -33,338	 194,800	 
1,162	 -43,395	 -0,113	 -33,334	 194,900	 
1,161	 -43,384	 -0,113	 -33,325	 195,000	 
1,160	 -43,374	 -0,113	 -33,317	 195,100	 
1,161	 -43,364	 -0,112	 -33,310	 195,200	 
1,162	 -43,356	 -0,113	 -33,303	 195,300	 
1,161	 -43,345	 -0,112	 -33,295	 195,400	 
1,161	 -43,334	 -0,113	 -33,289	 195,500	 
1,161	 -43,324	 -0,113	 -33,279	 195,600	 
1,161	 -43,315	 -0,112	 -33,271	 195,700	 
1,161	 -43,303	 -0,113	 -33,264	 195,800	 
1,160	 -43,295	 -0,112	 -33,256	 195,900	 
1,161	 -43,286	 -0,112	 -33,247	 196,000	 
1,160	 -43,275	 -0,112	 -33,240	 196,100	 
1,161	 -43,268	 -0,112	 -33,237	 196,200	 
1,160	 -43,256	 -0,112	 -33,230	 196,300	 
1,159	 -43,245	 -0,113	 -33,220	 196,400	 
1,161	 -43,236	 -0,113	 -33,212	 196,500	 
1,161	 -43,226	 -0,113	 -33,205	 196,600	 
1,159	 -43,216	 -0,113	 -33,198	 196,700	 
1,159	 -43,203	 -0,113	 -33,187	 196,800	 
1,160	 -43,195	 -0,112	 -33,181	 196,900	 
1,160	 -43,188	 -0,112	 -33,174	 197,000	 
1,159	 -43,177	 -0,112	 -33,168	 197,100	 
1,159	 -43,166	 -0,113	 -33,159	 197,200	 
1,160	 -43,154	 -0,112	 -33,148	 197,300	 
1,159	 -43,146	 -0,112	 -33,144	 197,400	 
1,159	 -43,137	 -0,113	 -33,135	 197,500	 
1,159	 -43,125	 -0,113	 -33,129	 197,600	 
1,159	 -43,114	 -0,112	 -33,119	 197,700	 
1,159	 -43,103	 -0,112	 -33,114	 197,800	 
1,159	 -43,094	 -0,113	 -33,104	 197,900	 
1,159	 -43,085	 -0,113	 -33,100	 198,000	 
1,158	 -43,074	 -0,112	 -33,087	 198,100	 
1,159	 -43,064	 -0,112	 -33,081	 198,200	 
1,159	 -43,053	 -0,112	 -33,071	 198,300	 
1,158	 -43,043	 -0,112	 -33,063	 198,400	 
1,157	 -43,033	 -0,112	 -33,055	 198,500	 
1,159	 -43,023	 -0,113	 -33,044	 198,600	 
1,158	 -43,014	 -0,113	 -33,039	 198,700	 
1,158	 -43,005	 -0,113	 -33,032	 198,800	 
1,157	 -42,993	 -0,112	 -33,024	 198,900	 
1,157	 -42,985	 -0,113	 -33,017	 199,000	 
1,157	 -42,975	 -0,112	 -33,008	 199,100	 
1,156	 -42,966	 -0,113	 -33,004	 199,200	 
1,156	 -42,953	 -0,112	 -32,993	 199,300	 
1,157	 -42,943	 -0,112	 -32,986	 199,400	 
1,157	 -42,935	 -0,113	 -32,978	 199,500	 
1,157	 -42,925	 -0,112	 -32,971	 199,600	 
1,157	 -42,914	 -0,113	 -32,963	 199,700	 
1,155	 -42,904	 -0,113	 -32,955	 199,800	 
1,157	 -42,895	 -0,113	 -32,949	 199,900	 
1,157	 -42,886	 -0,112	 -32,943	 200,000	 
1,155	 -42,873	 -0,112	 -32,936	 200,100	 
1,156	 -42,862	 -0,113	 -32,923	 200,200	 
1,155	 -42,854	 -0,113	 -32,921	 200,300	 
1,155	 -42,845	 -0,113	 -32,911	 200,400	 
1,154	 -42,834	 -0,113	 -32,905	 200,500	 
1,155	 -42,822	 -0,112	 -32,896	 200,600	 
1,153	 -42,818	 -0,113	 -32,888	 200,700	 
1,152	 -42,803	 -0,113	 -32,883	 200,800	 
1,153	 -42,797	 -0,113	 -32,876	 200,900	 
1,153	 -42,782	 -0,113	 -32,863	 201,000	 
1,152	 -42,775	 -0,113	 -32,857	 201,100	 
1,153	 -42,767	 -0,113	 -32,848	 201,200	 
1,152	 -42,756	 -0,113	 -32,844	 201,300	 
1,153	 -42,743	 -0,112	 -32,834	 201,400	 
1,152	 -42,735	 -0,113	 -32,828	 201,500	 
1,153	 -42,727	 -0,112	 -32,819	 201,600	 
1,151	 -42,717	 -0,113	 -32,808	 201,700	 
1,152	 -42,704	 -0,113	 -32,800	 201,800	 
1,151	 -42,697	 -0,113	 -32,794	 201,900	 
1,151	 -42,686	 -0,112	 -32,784	 202,000	 
1,151	 -42,675	 -0,113	 -32,778	 202,100	 
1,151	 -42,662	 -0,113	 -32,768	 202,200	 
1,152	 -42,654	 -0,112	 -32,760	 202,300	 
1,150	 -42,646	 -0,113	 -32,755	 202,400	 
1,150	 -42,638	 -0,113	 -32,748	 202,500	 
1,150	 -42,621	 -0,113	 -32,739	 202,600	 
1,151	 -42,613	 -0,113	 -32,730	 202,700	 
1,149	 -42,605	 -0,112	 -32,723	 202,800	 
1,149	 -42,593	 -0,113	 -32,717	 202,900	 
1,149	 -42,583	 -0,113	 -32,708	 203,000	 
1,148	 -42,576	 -0,112	 -32,702	 203,100	 
1,148	 -42,564	 -0,113	 -32,693	 203,200	 
1,149	 -42,555	 -0,112	 -32,687	 203,300	 
1,147	 -42,539	 -0,113	 -32,679	 203,400	 
1,147	 -42,533	 -0,112	 -32,670	 203,500	 
1,147	 -42,526	 -0,113	 -32,664	 203,600	 
1,147	 -42,517	 -0,113	 -32,657	 203,700	 
1,147	 -42,505	 -0,113	 -32,651	 203,800	 
1,148	 -42,492	 -0,112	 -32,638	 203,900	 
1,149	 -42,483	 -0,113	 -32,635	 204,000	 
1,147	 -42,476	 -0,112	 -32,624	 204,100	 
1,145	 -42,463	 -0,113	 -32,620	 204,200	 
1,146	 -42,453	 -0,113	 -32,609	 204,300	 
1,146	 -42,444	 -0,112	 -32,605	 204,400	 
1,143	 -42,434	 -0,112	 -32,596	 204,500	 
1,143	 -42,425	 -0,113	 -32,590	 204,600	 
1,143	 -42,415	 -0,113	 -32,581	 204,700	 
1,144	 -42,405	 -0,113	 -32,570	 204,800	 
1,144	 -42,396	 -0,113	 -32,563	 204,900	 
1,144	 -42,387	 -0,113	 -32,558	 205,000	 
1,143	 -42,375	 -0,112	 -32,548	 205,100	 
1,143	 -42,363	 -0,112	 -32,541	 205,200	 
1,142	 -42,354	 -0,113	 -32,535	 205,300	 
1,142	 -42,347	 -0,113	 -32,523	 205,400	 
1,142	 -42,334	 -0,112	 -32,517	 205,500	 
1,141	 -42,325	 -0,113	 -32,512	 205,600	 
1,142	 -42,317	 -0,112	 -32,504	 205,700	 
1,141	 -42,303	 -0,112	 -32,497	 205,800	 
1,140	 -42,292	 -0,112	 -32,490	 205,900	 
1,140	 -42,285	 -0,112	 -32,481	 206,000	 
1,140	 -42,276	 -0,113	 -32,474	 206,100	 
1,140	 -42,266	 -0,113	 -32,466	 206,200	 
1,139	 -42,256	 -0,113	 -32,460	 206,300	 
1,139	 -42,245	 -0,113	 -32,449	 206,400	 
1,139	 -42,235	 -0,112	 -32,443	 206,500	 
1,139	 -42,226	 -0,113	 -32,436	 206,600	 
1,139	 -42,218	 -0,113	 -32,429	 206,700	 
1,138	 -42,206	 -0,112	 -32,416	 206,800	 
1,138	 -42,191	 -0,112	 -32,411	 206,900	 
1,137	 -42,186	 -0,112	 -32,399	 207,000	 
1,137	 -42,177	 -0,113	 -32,394	 207,100	 
1,136	 -42,163	 -0,113	 -32,384	 207,200	 
1,136	 -42,156	 -0,112	 -32,377	 207,300	 
1,135	 -42,147	 -0,113	 -32,372	 207,400	 
1,134	 -42,135	 -0,112	 -32,363	 207,500	 
1,133	 -42,124	 -0,112	 -32,356	 207,600	 
1,134	 -42,114	 -0,113	 -32,350	 207,700	 
1,134	 -42,105	 -0,112	 -32,340	 207,800	 
1,133	 -42,096	 -0,113	 -32,334	 207,900	 
1,133	 -42,085	 -0,112	 -32,324	 208,000	 
1,130	 -42,078	 -0,112	 -32,316	 208,100	 
1,131	 -42,067	 -0,112	 -32,310	 208,200	 
1,130	 -42,060	 -0,113	 -32,303	 208,300	 
1,130	 -42,046	 -0,112	 -32,293	 208,400	 
1,130	 -42,035	 -0,112	 -32,289	 208,500	 
1,129	 -42,024	 -0,113	 -32,281	 208,600	 
1,131	 -42,016	 -0,112	 -32,272	 208,700	 
1,129	 -42,007	 -0,113	 -32,266	 208,800	 
1,128	 -41,993	 -0,112	 -32,256	 208,900	 
1,129	 -41,991	 -0,113	 -32,250	 209,000	 
1,128	 -41,976	 -0,113	 -32,240	 209,100	 
1,127	 -41,970	 -0,113	 -32,233	 209,200	 
1,126	 -41,957	 -0,112	 -32,227	 209,300	 
1,128	 -41,946	 -0,112	 -32,217	 209,400	 
1,127	 -41,935	 -0,112	 -32,210	 209,500	 
1,126	 -41,925	 -0,113	 -32,206	 209,600	 
1,127	 -41,914	 -0,112	 -32,191	 209,700	 
1,125	 -41,909	 -0,113	 -32,191	 209,800	 
1,125	 -41,898	 -0,113	 -32,180	 209,900	 
1,124	 -41,887	 -0,112	 -32,172	 210,000	 
1,124	 -41,879	 -0,112	 -32,167	 210,100	 
1,123	 -41,864	 -0,112	 -32,156	 210,200	 
1,124	 -41,855	 -0,113	 -32,149	 210,300	 
1,123	 -41,845	 -0,113	 -32,142	 210,400	 
1,122	 -41,836	 -0,113	 -32,129	 210,500	 
1,122	 -41,824	 -0,113	 -32,128	 210,600	 
1,122	 -41,814	 -0,113	 -32,120	 210,700	 
1,121	 -41,807	 -0,113	 -32,112	 210,800	 
1,120	 -41,797	 -0,113	 -32,105	 210,900	 
1,120	 -41,786	 -0,112	 -32,096	 211,000	 
1,120	 -41,777	 -0,113	 -32,090	 211,100	 
1,120	 -41,765	 -0,113	 -32,081	 211,200	 
1,119	 -41,757	 -0,113	 -32,074	 211,300	 
1,119	 -41,743	 -0,112	 -32,063	 211,400	 
1,118	 -41,736	 -0,113	 -32,059	 211,500	 
1,117	 -41,727	 -0,113	 -32,051	 211,600	 
1,117	 -41,716	 -0,112	 -32,044	 211,700	 
1,117	 -41,704	 -0,112	 -32,036	 211,800	 
1,117	 -41,693	 -0,113	 -32,028	 211,900	 
1,116	 -41,685	 -0,113	 -32,020	 212,000	 
1,115	 -41,679	 -0,113	 -32,012	 212,100	 
1,115	 -41,665	 -0,113	 -32,002	 212,200	 
1,115	 -41,656	 -0,112	 -31,996	 212,300	 
1,115	 -41,646	 -0,113	 -31,988	 212,400	 
1,114	 -41,633	 -0,113	 -31,980	 212,500	 
1,113	 -41,627	 -0,112	 -31,976	 212,600	 
1,113	 -41,614	 -0,113	 -31,966	 212,700	 
1,113	 -41,607	 -0,113	 -31,962	 212,800	 
1,112	 -41,596	 -0,113	 -31,953	 212,900	 
1,111	 -41,587	 -0,113	 -31,947	 213,000	 
1,113	 -41,573	 -0,112	 -31,934	 213,100	 
1,111	 -41,564	 -0,112	 -31,931	 213,200	 
1,111	 -41,554	 -0,113	 -31,922	 213,300	 
1,111	 -41,543	 -0,112	 -31,915	 213,400	 
1,111	 -41,535	 -0,112	 -31,906	 213,500	 
1,110	 -41,524	 -0,112	 -31,897	 213,600	 
1,109	 -41,513	 -0,113	 -31,892	 213,700	 
1,108	 -41,507	 -0,112	 -31,884	 213,800	 
1,107	 -41,493	 -0,112	 -31,871	 213,900	 
1,108	 -41,487	 -0,112	 -31,871	 214,000	 
1,108	 -41,475	 -0,112	 -31,861	 214,100	 
1,107	 -41,465	 -0,112	 -31,851	 214,200	 
1,105	 -41,455	 -0,113	 -31,847	 214,300	 
1,106	 -41,443	 -0,113	 -31,838	 214,400	 
1,105	 -41,435	 -0,112	 -31,827	 214,500	 
1,105	 -41,423	 -0,112	 -31,817	 214,600	 
1,105	 -41,416	 -0,112	 -31,812	 214,700	 
1,104	 -41,403	 -0,113	 -31,801	 214,800	 
1,104	 -41,394	 -0,113	 -31,796	 214,900	 
1,104	 -41,382	 -0,112	 -31,787	 215,000	 
1,103	 -41,373	 -0,113	 -31,781	 215,100	 
1,103	 -41,366	 -0,113	 -31,775	 215,200	 
1,103	 -41,354	 -0,112	 -31,759	 215,300	 
1,103	 -41,346	 -0,113	 -31,754	 215,400	 
1,103	 -41,333	 -0,112	 -31,746	 215,500	 
1,101	 -41,323	 -0,113	 -31,741	 215,600	 
1,101	 -41,315	 -0,113	 -31,731	 215,700	 
1,102	 -41,306	 -0,113	 -31,722	 215,800	 
1,100	 -41,295	 -0,113	 -31,715	 215,900	 
1,100	 -41,284	 -0,113	 -31,709	 216,000	 
1,099	 -41,270	 -0,113	 -31,701	 216,100	 
1,099	 -41,263	 -0,112	 -31,691	 216,200	 
1,099	 -41,252	 -0,113	 -31,685	 216,300	 
1,099	 -41,244	 -0,113	 -31,678	 216,400	 
1,099	 -41,234	 -0,113	 -31,671	 216,500	 
1,098	 -41,224	 -0,113	 -31,663	 216,600	 
1,098	 -41,213	 -0,113	 -31,656	 216,700	 
1,099	 -41,200	 -0,113	 -31,647	 216,800	 
1,097	 -41,193	 -0,113	 -31,640	 216,900	 
1,096	 -41,180	 -0,113	 -31,632	 217,000	 
1,097	 -41,174	 -0,112	 -31,624	 217,100	 
1,095	 -41,163	 -0,112	 -31,618	 217,200	 
1,095	 -41,152	 -0,112	 -31,609	 217,300	 
1,096	 -41,145	 -0,113	 -31,602	 217,400	 
1,096	 -41,131	 -0,113	 -31,594	 217,500	 
1,095	 -41,123	 -0,113	 -31,587	 217,600	 
1,095	 -41,113	 -0,112	 -31,577	 217,700	 
1,095	 -41,103	 -0,113	 -31,573	 217,800	 
1,094	 -41,094	 -0,112	 -31,563	 217,900	 
1,094	 -41,085	 -0,112	 -31,553	 218,000	 
1,095	 -41,071	 -0,112	 -31,550	 218,100	 
1,094	 -41,065	 -0,113	 -31,541	 218,200	 
1,093	 -41,052	 -0,113	 -31,535	 218,300	 
1,092	 -41,042	 -0,113	 -31,525	 218,400	 
1,092	 -41,032	 -0,113	 -31,517	 218,500	 
1,092	 -41,024	 -0,113	 -31,512	 218,600	 
1,091	 -41,015	 -0,113	 -31,505	 218,700	 
1,090	 -41,003	 -0,113	 -31,492	 218,800	 
1,090	 -40,994	 -0,112	 -31,487	 218,900	 
1,091	 -40,983	 -0,113	 -31,478	 219,000	 
1,091	 -40,975	 -0,112	 -31,472	 219,100	 
1,091	 -40,960	 -0,113	 -31,465	 219,200	 
1,091	 -40,952	 -0,112	 -31,452	 219,300	 
1,090	 -40,946	 -0,113	 -31,450	 219,400	 
1,090	 -40,933	 -0,112	 -31,443	 219,500	 
1,089	 -40,925	 -0,113	 -31,437	 219,600	 
1,088	 -40,911	 -0,113	 -31,426	 219,700	 
1,090	 -40,900	 -0,113	 -31,420	 219,800	 
1,089	 -40,894	 -0,112	 -31,415	 219,900	 
1,089	 -40,881	 -0,113	 -31,404	 220,000	 
1,088	 -40,873	 -0,113	 -31,395	 220,100	 
1,089	 -40,861	 -0,112	 -31,388	 220,200	 
1,088	 -40,852	 -0,112	 -31,380	 220,300	 
1,087	 -40,846	 -0,113	 -31,374	 220,400	 
1,087	 -40,833	 -0,113	 -31,367	 220,500	 
1,086	 -40,823	 -0,112	 -31,360	 220,600	 
1,087	 -40,811	 -0,112	 -31,352	 220,700	 
1,086	 -40,802	 -0,113	 -31,343	 220,800	 
1,087	 -40,795	 -0,113	 -31,333	 220,900	 
1,086	 -40,781	 -0,112	 -31,324	 221,000	 
1,087	 -40,772	 -0,112	 -31,320	 221,100	 
1,086	 -40,766	 -0,112	 -31,311	 221,200	 
1,084	 -40,754	 -0,112	 -31,305	 221,300	 
1,084	 -40,745	 -0,113	 -31,298	 221,400	 
1,085	 -40,733	 -0,113	 -31,290	 221,500	 
1,085	 -40,722	 -0,112	 -31,283	 221,600	 
1,084	 -40,711	 -0,112	 -31,277	 221,700	 
1,084	 -40,704	 -0,112	 -31,266	 221,800	 
1,084	 -40,695	 -0,113	 -31,258	 221,900	 
1,084	 -40,683	 -0,112	 -31,250	 222,000	 
1,083	 -40,673	 -0,113	 -31,242	 222,100	 
1,084	 -40,667	 -0,113	 -31,233	 222,200	 
1,083	 -40,654	 -0,113	 -31,231	 222,300	 
1,082	 -40,640	 -0,112	 -31,222	 222,400	 
1,083	 -40,631	 -0,112	 -31,214	 222,500	 
1,084	 -40,626	 -0,112	 -31,207	 222,600	 
1,082	 -40,615	 -0,113	 -31,197	 222,700	 
1,081	 -40,602	 -0,112	 -31,189	 222,800	 
1,082	 -40,591	 -0,113	 -31,185	 222,900	 
1,081	 -40,583	 -0,113	 -31,175	 223,000	 
1,082	 -40,574	 -0,113	 -31,167	 223,100	 
1,081	 -40,562	 -0,113	 -31,161	 223,200	 
1,081	 -40,550	 -0,112	 -31,150	 223,300	 
1,081	 -40,541	 -0,112	 -31,146	 223,400	 
1,081	 -40,531	 -0,113	 -31,137	 223,500	 
1,080	 -40,524	 -0,113	 -31,132	 223,600	 
1,080	 -40,513	 -0,113	 -31,120	 223,700	 
1,080	 -40,505	 -0,113	 -31,113	 223,800	 
1,079	 -40,491	 -0,112	 -31,102	 223,900	 
1,079	 -40,482	 -0,112	 -31,093	 224,000	 
1,078	 -40,473	 -0,113	 -31,090	 224,100	 
1,078	 -40,461	 -0,113	 -31,080	 224,200	 
1,078	 -40,453	 -0,113	 -31,071	 224,300	 
1,076	 -40,443	 -0,113	 -31,065	 224,400	 
1,076	 -40,434	 -0,113	 -31,057	 224,500	 
1,078	 -40,423	 -0,112	 -31,049	 224,600	 
1,077	 -40,415	 -0,113	 -31,042	 224,700	 
1,077	 -40,405	 -0,113	 -31,036	 224,800	 
1,078	 -40,394	 -0,112	 -31,026	 224,900	 
1,076	 -40,384	 -0,112	 -31,020	 225,000	 
1,076	 -40,369	 -0,112	 -31,012	 225,100	 
1,076	 -40,366	 -0,112	 -31,005	 225,200	 
1,076	 -40,355	 -0,112	 -30,998	 225,300	 
1,076	 -40,345	 -0,113	 -30,990	 225,400	 
1,075	 -40,334	 -0,113	 -30,983	 225,500	 
1,075	 -40,327	 -0,112	 -30,977	 225,600	 
1,074	 -40,313	 -0,112	 -30,966	 225,700	 
1,075	 -40,301	 -0,113	 -30,961	 225,800	 
1,074	 -40,289	 -0,112	 -30,953	 225,900	 
1,075	 -40,284	 -0,112	 -30,942	 226,000	 
1,075	 -40,272	 -0,113	 -30,937	 226,100	 
1,074	 -40,264	 -0,112	 -30,928	 226,200	 
1,073	 -40,256	 -0,113	 -30,922	 226,300	 
1,073	 -40,244	 -0,113	 -30,915	 226,400	 
1,074	 -40,234	 -0,112	 -30,907	 226,500	 
1,073	 -40,225	 -0,112	 -30,899	 226,600	 
1,072	 -40,212	 -0,113	 -30,889	 226,700	 
1,073	 -40,205	 -0,112	 -30,881	 226,800	 
1,072	 -40,191	 -0,112	 -30,878	 226,900	 
1,071	 -40,184	 -0,112	 -30,867	 227,000	 
1,072	 -40,174	 -0,112	 -30,855	 227,100	 
1,071	 -40,162	 -0,113	 -30,851	 227,200	 
1,071	 -40,153	 -0,113	 -30,841	 227,300	 
1,072	 -40,142	 -0,113	 -30,834	 227,400	 
1,070	 -40,131	 -0,113	 -30,825	 227,500	 
1,070	 -40,124	 -0,113	 -30,821	 227,600	 
1,069	 -40,111	 -0,113	 -30,813	 227,700	 
1,070	 -40,100	 -0,113	 -30,803	 227,800	 
1,069	 -40,094	 -0,112	 -30,793	 227,900	 
1,069	 -40,085	 -0,112	 -30,788	 228,000	 
1,069	 -40,076	 -0,113	 -30,779	 228,100	 
1,070	 -40,061	 -0,113	 -30,770	 228,200	 
1,069	 -40,050	 -0,113	 -30,765	 228,300	 
1,069	 -40,042	 -0,113	 -30,754	 228,400	 
1,069	 -40,032	 -0,113	 -30,749	 228,500	 
1,067	 -40,021	 -0,113	 -30,742	 228,600	 
1,068	 -40,013	 -0,112	 -30,733	 228,700	 
1,068	 -40,004	 -0,112	 -30,728	 228,800	 
1,067	 -39,995	 -0,113	 -30,722	 228,900	 
1,067	 -39,982	 -0,112	 -30,717	 229,000	 
1,067	 -39,971	 -0,113	 -30,703	 229,100	 
1,067	 -39,960	 -0,112	 -30,694	 229,200	 
1,067	 -39,951	 -0,112	 -30,690	 229,300	 
1,066	 -39,944	 -0,113	 -30,683	 229,400	 
1,066	 -39,935	 -0,113	 -30,675	 229,500	 
1,066	 -39,917	 -0,112	 -30,667	 229,600	 
1,065	 -39,910	 -0,112	 -30,658	 229,700	 
1,066	 -39,903	 -0,113	 -30,650	 229,800	 
1,065	 -39,895	 -0,113	 -30,644	 229,900	 
1,065	 -39,881	 -0,113	 -30,633	 230,000	 
1,065	 -39,869	 -0,112	 -30,627	 230,100	 
1,065	 -39,863	 -0,113	 -30,621	 230,200	 
1,064	 -39,852	 -0,113	 -30,611	 230,300	 
1,063	 -39,843	 -0,113	 -30,605	 230,400	 
1,063	 -39,831	 -0,112	 -30,597	 230,500	 
1,064	 -39,822	 -0,113	 -30,591	 230,600	 
1,063	 -39,810	 -0,113	 -30,583	 230,700	 
1,062	 -39,802	 -0,112	 -30,574	 230,800	 
1,062	 -39,795	 -0,112	 -30,561	 230,900	 
1,062	 -39,782	 -0,113	 -30,554	 231,000	 
1,063	 -39,772	 -0,112	 -30,549	 231,100	 
1,062	 -39,764	 -0,113	 -30,545	 231,200	 
1,061	 -39,755	 -0,113	 -30,538	 231,300	 
1,061	 -39,742	 -0,112	 -30,530	 231,400	 
1,062	 -39,731	 -0,112	 -30,521	 231,500	 
1,060	 -39,723	 -0,113	 -30,514	 231,600	 
1,062	 -39,714	 -0,113	 -30,505	 231,700	 
1,060	 -39,701	 -0,113	 -30,497	 231,800	 
1,060	 -39,693	 -0,113	 -30,488	 231,900	 
1,060	 -39,683	 -0,113	 -30,486	 232,000	 
1,060	 -39,672	 -0,112	 -30,475	 232,100	 
1,059	 -39,663	 -0,113	 -30,466	 232,200	 
1,059	 -39,650	 -0,113	 -30,457	 232,300	 
1,059	 -39,641	 -0,113	 -30,449	 232,400	 
1,054	 -39,634	 -0,113	 -30,443	 232,500	 
1,055	 -39,622	 -0,113	 -30,433	 232,600	 
1,056	 -39,614	 -0,113	 -30,424	 232,700	 
1,057	 -39,600	 -0,113	 -30,414	 232,800	 
1,057	 -39,593	 -0,113	 -30,411	 232,900	 
1,056	 -39,586	 -0,112	 -30,403	 233,000	 
1,058	 -39,572	 -0,113	 -30,396	 233,100	 
1,055	 -39,564	 -0,113	 -30,389	 233,200	 
1,056	 -39,553	 -0,112	 -30,381	 233,300	 
1,056	 -39,541	 -0,112	 -30,372	 233,400	 
1,056	 -39,532	 -0,113	 -30,365	 233,500	 
1,055	 -39,523	 -0,113	 -30,356	 233,600	 
1,056	 -39,513	 -0,112	 -30,346	 233,700	 
1,056	 -39,505	 -0,113	 -30,343	 233,800	 
1,054	 -39,494	 -0,113	 -30,335	 233,900	 
1,055	 -39,485	 -0,112	 -30,328	 234,000	 
1,053	 -39,476	 -0,113	 -30,322	 234,100	 
1,053	 -39,460	 -0,113	 -30,312	 234,200	 
1,053	 -39,452	 -0,112	 -30,303	 234,300	 
1,053	 -39,444	 -0,113	 -30,297	 234,400	 
1,053	 -39,434	 -0,112	 -30,289	 234,500	 
1,051	 -39,425	 -0,113	 -30,281	 234,600	 
1,053	 -39,411	 -0,113	 -30,272	 234,700	 
1,052	 -39,405	 -0,112	 -30,265	 234,800	 
1,052	 -39,391	 -0,113	 -30,257	 234,900	 
1,052	 -39,384	 -0,113	 -30,250	 235,000	 
1,051	 -39,371	 -0,112	 -30,245	 235,100	 
1,051	 -39,362	 -0,112	 -30,234	 235,200	 
1,051	 -39,352	 -0,113	 -30,228	 235,300	 
1,052	 -39,342	 -0,112	 -30,218	 235,400	 
1,050	 -39,333	 -0,112	 -30,214	 235,500	 
1,050	 -39,322	 -0,113	 -30,204	 235,600	 
1,050	 -39,313	 -0,113	 -30,199	 235,700	 
1,049	 -39,305	 -0,113	 -30,189	 235,800	 
1,049	 -39,294	 -0,113	 -30,183	 235,900	 
1,049	 -39,284	 -0,113	 -30,176	 236,000	 
1,048	 -39,272	 -0,113	 -30,164	 236,100	 
1,048	 -39,260	 -0,112	 -30,160	 236,200	 
1,049	 -39,252	 -0,113	 -30,153	 236,300	 
1,049	 -39,243	 -0,112	 -30,144	 236,400	 
1,047	 -39,232	 -0,112	 -30,137	 236,500	 
1,046	 -39,222	 -0,113	 -30,128	 236,600	 
1,046	 -39,212	 -0,113	 -30,122	 236,700	 
1,045	 -39,201	 -0,112	 -30,115	 236,800	 
1,046	 -39,190	 -0,112	 -30,107	 236,900	 
1,046	 -39,182	 -0,112	 -30,096	 237,000	 
1,045	 -39,173	 -0,112	 -30,094	 237,100	 
1,045	 -39,164	 -0,113	 -30,083	 237,200	 
1,045	 -39,153	 -0,112	 -30,075	 237,300	 
1,044	 -39,144	 -0,113	 -30,071	 237,400	 
1,043	 -39,131	 -0,112	 -30,059	 237,500	 
1,044	 -39,121	 -0,113	 -30,052	 237,600	 
1,044	 -39,113	 -0,113	 -30,043	 237,700	 
1,043	 -39,102	 -0,113	 -30,037	 237,800	 
1,042	 -39,095	 -0,113	 -30,030	 237,900	 
1,043	 -39,080	 -0,113	 -30,021	 238,000	 
1,043	 -39,073	 -0,112	 -30,015	 238,100	 
1,042	 -39,064	 -0,112	 -30,007	 238,200	 
1,041	 -39,053	 -0,113	 -29,999	 238,300	 
1,041	 -39,042	 -0,113	 -29,990	 238,400	 
1,041	 -39,028	 -0,113	 -29,979	 238,500	 
1,041	 -39,025	 -0,113	 -29,975	 238,600	 
1,040	 -39,015	 -0,112	 -29,970	 238,700	 
1,039	 -39,001	 -0,113	 -29,964	 238,800	 
1,039	 -38,992	 -0,112	 -29,954	 238,900	 
1,039	 -38,983	 -0,113	 -29,948	 239,000	 
1,038	 -38,975	 -0,113	 -29,939	 239,100	 
1,039	 -38,963	 -0,113	 -29,933	 239,200	 
1,038	 -38,953	 -0,113	 -29,927	 239,300	 
1,038	 -38,943	 -0,113	 -29,914	 239,400	 
1,039	 -38,936	 -0,112	 -29,907	 239,500	 
1,037	 -38,919	 -0,113	 -29,901	 239,600	 
1,037	 -38,911	 -0,113	 -29,892	 239,700	 
1,036	 -38,900	 -0,113	 -29,886	 239,800	 
1,037	 -38,889	 -0,113	 -29,872	 239,900	 
1,036	 -38,885	 -0,113	 -29,868	 240,000	 
1,035	 -38,871	 -0,112	 -29,859	 240,100	 
1,035	 -38,863	 -0,112	 -29,853	 240,200	 
1,036	 -38,853	 -0,113	 -29,842	 240,300	 
1,036	 -38,842	 -0,112	 -29,836	 240,400	 
1,034	 -38,831	 -0,112	 -29,828	 240,500	 
1,034	 -38,822	 -0,113	 -29,822	 240,600	 
1,033	 -38,813	 -0,113	 -29,816	 240,700	 
1,033	 -38,802	 -0,112	 -29,805	 240,800	 
1,034	 -38,791	 -0,113	 -29,794	 240,900	 
1,034	 -38,781	 -0,113	 -29,787	 241,000	 
1,032	 -38,773	 -0,112	 -29,780	 241,100	 
1,033	 -38,762	 -0,113	 -29,773	 241,200	 
1,032	 -38,750	 -0,113	 -29,763	 241,300	 
1,031	 -38,740	 -0,113	 -29,756	 241,400	 
1,031	 -38,733	 -0,112	 -29,750	 241,500	 
1,031	 -38,724	 -0,112	 -29,740	 241,600	 
1,029	 -38,710	 -0,113	 -29,734	 241,700	 
1,028	 -38,700	 -0,113	 -29,723	 241,800	 
1,030	 -38,690	 -0,112	 -29,718	 241,900	 
1,030	 -38,679	 -0,112	 -29,710	 242,000	 
1,029	 -38,674	 -0,113	 -29,703	 242,100	 
1,029	 -38,661	 -0,112	 -29,693	 242,200	 
1,029	 -38,654	 -0,113	 -29,688	 242,300	 
1,027	 -38,643	 -0,113	 -29,682	 242,400	 
1,027	 -38,637	 -0,113	 -29,674	 242,500	 
1,026	 -38,625	 -0,113	 -29,666	 242,600	 
1,026	 -38,611	 -0,113	 -29,658	 242,700	 
1,027	 -38,600	 -0,112	 -29,651	 242,800	 
1,027	 -38,592	 -0,112	 -29,642	 242,900	 
1,025	 -38,582	 -0,113	 -29,635	 243,000	 
1,024	 -38,570	 -0,113	 -29,629	 243,100	 
1,026	 -38,561	 -0,113	 -29,618	 243,200	 
1,024	 -38,552	 -0,112	 -29,613	 243,300	 
1,024	 -38,540	 -0,112	 -29,604	 243,400	 
1,023	 -38,532	 -0,113	 -29,596	 243,500	 
1,023	 -38,520	 -0,113	 -29,590	 243,600	 
1,023	 -38,508	 -0,113	 -29,579	 243,700	 
1,022	 -38,503	 -0,113	 -29,575	 243,800	 
1,023	 -38,493	 -0,112	 -29,564	 243,900	 
1,021	 -38,481	 -0,112	 -29,558	 244,000	 
1,021	 -38,471	 -0,113	 -29,548	 244,100	 
1,022	 -38,462	 -0,112	 -29,544	 244,200	 
1,020	 -38,453	 -0,112	 -29,536	 244,300	 
1,020	 -38,440	 -0,113	 -29,530	 244,400	 
1,019	 -38,437	 -0,113	 -29,520	 244,500	 
1,019	 -38,420	 -0,112	 -29,513	 244,600	 
1,020	 -38,408	 -0,112	 -29,504	 244,700	 
1,018	 -38,403	 -0,112	 -29,495	 244,800	 
1,018	 -38,391	 -0,112	 -29,491	 244,900	 
1,018	 -38,384	 -0,113	 -29,487	 245,000	 
1,017	 -38,372	 -0,113	 -29,475	 245,100	 
1,017	 -38,361	 -0,112	 -29,469	 245,200	 
1,017	 -38,350	 -0,113	 -29,459	 245,300	 
1,017	 -38,342	 -0,113	 -29,454	 245,400	 
1,016	 -38,329	 -0,113	 -29,445	 245,500	 
1,016	 -38,321	 -0,112	 -29,436	 245,600	 
1,015	 -38,311	 -0,112	 -29,430	 245,700	 
1,015	 -38,305	 -0,113	 -29,423	 245,800	 
1,013	 -38,294	 -0,113	 -29,414	 245,900	 
1,012	 -38,285	 -0,113	 -29,406	 246,000	 
1,014	 -38,270	 -0,112	 -29,397	 246,100	 
1,011	 -38,264	 -0,113	 -29,391	 246,200	 
1,012	 -38,252	 -0,113	 -29,384	 246,300	 
1,013	 -38,241	 -0,113	 -29,376	 246,400	 
1,010	 -38,236	 -0,113	 -29,368	 246,500	 
1,010	 -38,220	 -0,112	 -29,358	 246,600	 
1,011	 -38,212	 -0,112	 -29,349	 246,700	 
1,011	 -38,203	 -0,113	 -29,346	 246,800	 
1,009	 -38,191	 -0,113	 -29,337	 246,900	 
1,009	 -38,184	 -0,113	 -29,328	 247,000	 
1,010	 -38,172	 -0,113	 -29,324	 247,100	 
1,009	 -38,163	 -0,113	 -29,316	 247,200	 
1,009	 -38,153	 -0,113	 -29,307	 247,300	 
1,009	 -38,141	 -0,112	 -29,299	 247,400	 
1,007	 -38,133	 -0,113	 -29,294	 247,500	 
1,007	 -38,124	 -0,112	 -29,285	 247,600	 
1,008	 -38,111	 -0,112	 -29,276	 247,700	 
1,007	 -38,104	 -0,112	 -29,271	 247,800	 
1,006	 -38,090	 -0,113	 -29,263	 247,900	 
1,006	 -38,084	 -0,113	 -29,257	 248,000	 
1,005	 -38,073	 -0,113	 -29,246	 248,100	 
1,005	 -38,061	 -0,113	 -29,239	 248,200	 
1,005	 -38,052	 -0,112	 -29,230	 248,300	 
1,004	 -38,042	 -0,112	 -29,225	 248,400	 
1,003	 -38,037	 -0,113	 -29,219	 248,500	 
1,004	 -38,024	 -0,112	 -29,209	 248,600	 
1,003	 -38,015	 -0,112	 -29,206	 248,700	 
1,002	 -38,003	 -0,112	 -29,197	 248,800	 
1,002	 -37,993	 -0,113	 -29,188	 248,900	 
1,002	 -37,981	 -0,113	 -29,179	 249,000	 
1,002	 -37,974	 -0,113	 -29,169	 249,100	 
1,001	 -37,963	 -0,112	 -29,162	 249,200	 
1,001	 -37,954	 -0,113	 -29,151	 249,300	 
1,000	 -37,945	 -0,113	 -29,144	 249,400	 
0,998	 -37,934	 -0,113	 -29,137	 249,500	 
1,000	 -37,923	 -0,113	 -29,126	 249,600	 
1,000	 -37,914	 -0,112	 -29,124	 249,700	 
0,998	 -37,902	 -0,113	 -29,114	 249,800	 
1,000	 -37,894	 -0,113	 -29,108	 249,900	 
0,999	 -37,885	 -0,112	 -29,100	 250,000	 
0,996	 -37,873	 -0,112	 -29,086	 250,100	 
0,998	 -37,862	 -0,113	 -29,081	 250,200	 
0,998	 -37,851	 -0,112	 -29,075	 250,300	 
0,996	 -37,844	 -0,113	 -29,070	 250,400	 
0,995	 -37,834	 -0,113	 -29,064	 250,500	 
0,995	 -37,821	 -0,112	 -29,054	 250,600	 
0,995	 -37,813	 -0,113	 -29,046	 250,700	 
0,996	 -37,808	 -0,113	 -29,036	 250,800	 
0,996	 -37,792	 -0,113	 -29,029	 250,900	 
0,993	 -37,784	 -0,113	 -29,025	 251,000	 
0,993	 -37,771	 -0,113	 -29,013	 251,100	 
0,993	 -37,760	 -0,113	 -29,008	 251,200	 
0,994	 -37,757	 -0,113	 -29,000	 251,300	 
0,992	 -37,742	 -0,113	 -28,993	 251,400	 
0,992	 -37,733	 -0,113	 -28,985	 251,500	 
0,992	 -37,724	 -0,113	 -28,976	 251,600	 
0,991	 -37,712	 -0,112	 -28,972	 251,700	 
0,991	 -37,700	 -0,112	 -28,959	 251,800	 
0,990	 -37,694	 -0,112	 -28,955	 251,900	 
0,991	 -37,684	 -0,113	 -28,946	 252,000	 
0,990	 -37,674	 -0,112	 -28,934	 252,100	 
0,991	 -37,663	 -0,113	 -28,931	 252,200	 
0,989	 -37,650	 -0,112	 -28,923	 252,300	 
0,989	 -37,642	 -0,113	 -28,915	 252,400	 
0,988	 -37,633	 -0,113	 -28,910	 252,500	 
0,989	 -37,625	 -0,113	 -28,895	 252,600	 
0,988	 -37,610	 -0,112	 -28,888	 252,700	 
0,988	 -37,600	 -0,113	 -28,883	 252,800	 
0,988	 -37,591	 -0,112	 -28,872	 252,900	 
0,987	 -37,583	 -0,113	 -28,866	 253,000	 
0,987	 -37,574	 -0,112	 -28,856	 253,100	 
0,988	 -37,567	 -0,113	 -28,851	 253,200	 
0,986	 -37,552	 -0,112	 -28,845	 253,300	 
0,986	 -37,540	 -0,113	 -28,834	 253,400	 
0,985	 -37,533	 -0,113	 -28,827	 253,500	 
0,985	 -37,524	 -0,112	 -28,820	 253,600	 
0,985	 -37,510	 -0,112	 -28,816	 253,700	 
0,985	 -37,500	 -0,112	 -28,807	 253,800	 
0,984	 -37,490	 -0,112	 -28,799	 253,900	 
0,983	 -37,483	 -0,112	 -28,789	 254,000	 
0,982	 -37,475	 -0,113	 -28,785	 254,100	 
0,978	 -37,462	 -0,112	 -28,774	 254,200	 
0,979	 -37,452	 -0,113	 -28,768	 254,300	 
0,980	 -37,442	 -0,113	 -28,760	 254,400	 
0,982	 -37,437	 -0,113	 -28,756	 254,500	 
0,983	 -37,424	 -0,113	 -28,746	 254,600	 
0,982	 -37,413	 -0,112	 -28,735	 254,700	 
0,982	 -37,406	 -0,113	 -28,728	 254,800	 
0,982	 -37,395	 -0,112	 -28,724	 254,900	 
0,981	 -37,384	 -0,113	 -28,714	 255,000	 
0,982	 -37,371	 -0,112	 -28,707	 255,100	 
0,980	 -37,364	 -0,113	 -28,695	 255,200	 
0,979	 -37,353	 -0,113	 -28,688	 255,300	 
0,979	 -37,345	 -0,112	 -28,685	 255,400	 
0,979	 -37,335	 -0,112	 -28,676	 255,500	 
0,978	 -37,324	 -0,113	 -28,668	 255,600	 
0,977	 -37,316	 -0,113	 -28,662	 255,700	 
0,978	 -37,302	 -0,112	 -28,655	 255,800	 
0,977	 -37,294	 -0,112	 -28,647	 255,900	 
0,977	 -37,281	 -0,113	 -28,639	 256,000	 
0,977	 -37,271	 -0,112	 -28,629	 256,100	 
0,976	 -37,264	 -0,112	 -28,623	 256,200	 
0,975	 -37,251	 -0,112	 -28,611	 256,300	 
0,975	 -37,242	 -0,112	 -28,607	 256,400	 
0,975	 -37,234	 -0,113	 -28,599	 256,500	 
0,975	 -37,222	 -0,112	 -28,593	 256,600	 
0,974	 -37,215	 -0,112	 -28,585	 256,700	 
0,973	 -37,205	 -0,113	 -28,578	 256,800	 
0,974	 -37,192	 -0,112	 -28,566	 256,900	 
0,973	 -37,185	 -0,113	 -28,560	 257,000	 
0,974	 -37,171	 -0,113	 -28,552	 257,100	 
0,973	 -37,163	 -0,112	 -28,546	 257,200	 
0,972	 -37,154	 -0,113	 -28,540	 257,300	 
0,972	 -37,142	 -0,112	 -28,530	 257,400	 
0,971	 -37,133	 -0,113	 -28,522	 257,500	 
0,972	 -37,123	 -0,113	 -28,518	 257,600	 
0,972	 -37,111	 -0,113	 -28,509	 257,700	 
0,972	 -37,102	 -0,113	 -28,499	 257,800	 
0,970	 -37,092	 -0,113	 -28,492	 257,900	 
0,969	 -37,083	 -0,112	 -28,482	 258,000	 
0,969	 -37,071	 -0,113	 -28,472	 258,100	 
0,968	 -37,062	 -0,112	 -28,470	 258,200	 
0,970	 -37,052	 -0,112	 -28,459	 258,300	 
0,970	 -37,046	 -0,113	 -28,454	 258,400	 
0,967	 -37,032	 -0,113	 -28,442	 258,500	 
0,968	 -37,024	 -0,113	 -28,432	 258,600	 
0,968	 -37,012	 -0,113	 -28,431	 258,700	 
0,967	 -37,003	 -0,112	 -28,421	 258,800	 
0,967	 -36,989	 -0,113	 -28,413	 258,900	 
0,965	 -36,984	 -0,113	 -28,406	 259,000	 
0,966	 -36,972	 -0,112	 -28,399	 259,100	 
0,966	 -36,960	 -0,112	 -28,389	 259,200	 
0,965	 -36,956	 -0,113	 -28,383	 259,300	 
0,965	 -36,945	 -0,112	 -28,373	 259,400	 
0,966	 -36,936	 -0,113	 -28,369	 259,500	 
0,964	 -36,921	 -0,113	 -28,358	 259,600	 
0,964	 -36,916	 -0,113	 -28,352	 259,700	 
0,962	 -36,902	 -0,113	 -28,344	 259,800	 
0,962	 -36,892	 -0,113	 -28,337	 259,900	 
0,963	 -36,883	 -0,113	 -28,330	 260,000	 
0,960	 -36,873	 -0,113	 -28,323	 260,100	 
0,960	 -36,862	 -0,113	 -28,315	 260,200	 
0,961	 -36,858	 -0,113	 -28,306	 260,300	 
0,959	 -36,844	 -0,113	 -28,298	 260,400	 
0,960	 -36,836	 -0,113	 -28,292	 260,500	 
0,959	 -36,824	 -0,113	 -28,286	 260,600	 
0,960	 -36,809	 -0,112	 -28,275	 260,700	 
0,959	 -36,802	 -0,113	 -28,270	 260,800	 
0,958	 -36,792	 -0,112	 -28,264	 260,900	 
0,958	 -36,784	 -0,113	 -28,255	 261,000	 
0,957	 -36,774	 -0,113	 -28,246	 261,100	 
0,956	 -36,760	 -0,113	 -28,237	 261,200	 
0,957	 -36,752	 -0,113	 -28,231	 261,300	 
0,957	 -36,743	 -0,113	 -28,225	 261,400	 
0,957	 -36,735	 -0,112	 -28,215	 261,500	 
0,956	 -36,720	 -0,113	 -28,209	 261,600	 
0,955	 -36,715	 -0,113	 -28,203	 261,700	 
0,956	 -36,701	 -0,113	 -28,191	 261,800	 
0,955	 -36,690	 -0,112	 -28,183	 261,900	 
0,954	 -36,685	 -0,113	 -28,177	 262,000	 
0,954	 -36,675	 -0,113	 -28,170	 262,100	 
0,953	 -36,663	 -0,113	 -28,163	 262,200	 
0,952	 -36,652	 -0,112	 -28,153	 262,300	 
0,953	 -36,643	 -0,113	 -28,147	 262,400	 
0,951	 -36,629	 -0,113	 -28,139	 262,500	 
0,952	 -36,622	 -0,113	 -28,130	 262,600	 
0,950	 -36,611	 -0,112	 -28,123	 262,700	 
0,949	 -36,604	 -0,113	 -28,117	 262,800	 
0,951	 -36,595	 -0,112	 -28,109	 262,900	 
0,950	 -36,584	 -0,113	 -28,101	 263,000	 
0,950	 -36,572	 -0,113	 -28,093	 263,100	 
0,949	 -36,565	 -0,112	 -28,085	 263,200	 
0,948	 -36,553	 -0,113	 -28,080	 263,300	 
0,947	 -36,541	 -0,113	 -28,070	 263,400	 
0,948	 -36,534	 -0,113	 -28,062	 263,500	 
0,949	 -36,524	 -0,113	 -28,054	 263,600	 
0,947	 -36,513	 -0,112	 -28,048	 263,700	 
0,948	 -36,501	 -0,113	 -28,043	 263,800	 
0,947	 -36,488	 -0,113	 -28,029	 263,900	 
0,945	 -36,484	 -0,112	 -28,021	 264,000	 
0,947	 -36,474	 -0,113	 -28,021	 264,100	 
0,945	 -36,463	 -0,113	 -28,012	 264,200	 
0,944	 -36,453	 -0,113	 -28,002	 264,300	 
0,943	 -36,441	 -0,113	 -27,997	 264,400	 
0,944	 -36,430	 -0,113	 -27,985	 264,500	 
0,943	 -36,424	 -0,112	 -27,979	 264,600	 
0,944	 -36,410	 -0,113	 -27,970	 264,700	 
0,943	 -36,402	 -0,113	 -27,964	 264,800	 
0,944	 -36,393	 -0,113	 -27,957	 264,900	 
0,941	 -36,384	 -0,113	 -27,951	 265,000	 
0,942	 -36,373	 -0,113	 -27,940	 265,100	 
0,942	 -36,365	 -0,113	 -27,934	 265,200	 
0,942	 -36,354	 -0,113	 -27,922	 265,300	 
0,941	 -36,340	 -0,113	 -27,914	 265,400	 
0,941	 -36,332	 -0,113	 -27,908	 265,500	 
0,940	 -36,321	 -0,112	 -27,898	 265,600	 
0,939	 -36,312	 -0,113	 -27,892	 265,700	 
0,939	 -36,302	 -0,113	 -27,884	 265,800	 
0,939	 -36,292	 -0,112	 -27,877	 265,900	 
0,938	 -36,283	 -0,113	 -27,870	 266,000	 
0,938	 -36,275	 -0,113	 -27,864	 266,100	 
0,938	 -36,262	 -0,112	 -27,846	 266,200	 
0,936	 -36,252	 -0,112	 -27,840	 266,300	 
0,937	 -36,243	 -0,113	 -27,834	 266,400	 
0,938	 -36,236	 -0,113	 -27,828	 266,500	 
0,935	 -36,225	 -0,113	 -27,818	 266,600	 
0,935	 -36,213	 -0,112	 -27,812	 266,700	 
0,935	 -36,202	 -0,112	 -27,804	 266,800	 
0,934	 -36,195	 -0,112	 -27,800	 266,900	 
0,935	 -36,186	 -0,113	 -27,791	 267,000	 
0,935	 -36,174	 -0,113	 -27,783	 267,100	 
0,933	 -36,165	 -0,113	 -27,776	 267,200	 
0,934	 -36,153	 -0,112	 -27,768	 267,300	 
0,934	 -36,141	 -0,113	 -27,758	 267,400	 
0,932	 -36,135	 -0,112	 -27,750	 267,500	 
0,934	 -36,122	 -0,113	 -27,746	 267,600	 
0,932	 -36,112	 -0,112	 -27,736	 267,700	 
0,931	 -36,106	 -0,113	 -27,731	 267,800	 
0,929	 -36,092	 -0,113	 -27,722	 267,900	 
0,931	 -36,082	 -0,113	 -27,714	 268,000	 
0,930	 -36,077	 -0,112	 -27,707	 268,100	 
0,931	 -36,063	 -0,112	 -27,695	 268,200	 
0,929	 -36,054	 -0,113	 -27,690	 268,300	 
0,929	 -36,043	 -0,113	 -27,683	 268,400	 
0,929	 -36,034	 -0,113	 -27,671	 268,500	 
0,925	 -36,022	 -0,112	 -27,668	 268,600	 
0,927	 -36,014	 -0,113	 -27,659	 268,700	 
0,929	 -36,007	 -0,113	 -27,651	 268,800	 
0,926	 -35,999	 -0,113	 -27,648	 268,900	 
0,926	 -35,984	 -0,112	 -27,637	 269,000	 
0,926	 -35,973	 -0,112	 -27,629	 269,100	 
0,925	 -35,964	 -0,113	 -27,621	 269,200	 
0,926	 -35,956	 -0,112	 -27,613	 269,300	 
0,927	 -35,947	 -0,112	 -27,604	 269,400	 
0,924	 -35,935	 -0,113	 -27,601	 269,500	 
0,922	 -35,923	 -0,113	 -27,587	 269,600	 
0,924	 -35,918	 -0,113	 -27,583	 269,700	 
0,923	 -35,904	 -0,113	 -27,576	 269,800	 
0,923	 -35,894	 -0,112	 -27,567	 269,900	 
0,924	 -35,887	 -0,113	 -27,560	 270,000	 
0,921	 -35,876	 -0,113	 -27,556	 270,100	 
0,921	 -35,866	 -0,112	 -27,547	 270,200	 
0,922	 -35,855	 -0,113	 -27,538	 270,300	 
0,921	 -35,847	 -0,113	 -27,530	 270,400	 
0,922	 -35,838	 -0,113	 -27,523	 270,500	 
0,921	 -35,826	 -0,113	 -27,516	 270,600	 
0,921	 -35,815	 -0,113	 -27,512	 270,700	 
0,920	 -35,809	 -0,113	 -27,497	 270,800	 
0,919	 -35,794	 -0,112	 -27,495	 270,900	 
0,919	 -35,786	 -0,113	 -27,484	 271,000	 
0,920	 -35,771	 -0,113	 -27,479	 271,100	 
0,917	 -35,762	 -0,113	 -27,472	 271,200	 
0,917	 -35,753	 -0,112	 -27,461	 271,300	 
0,917	 -35,747	 -0,113	 -27,453	 271,400	 
0,917	 -35,733	 -0,113	 -27,449	 271,500	 
0,917	 -35,730	 -0,113	 -27,438	 271,600	 
0,917	 -35,715	 -0,112	 -27,431	 271,700	 
0,916	 -35,706	 -0,113	 -27,426	 271,800	 
0,917	 -35,696	 -0,113	 -27,415	 271,900	 
0,916	 -35,684	 -0,113	 -27,407	 272,000	 
0,914	 -35,675	 -0,112	 -27,401	 272,100	 
0,915	 -35,667	 -0,113	 -27,394	 272,200	 
0,915	 -35,656	 -0,113	 -27,385	 272,300	 
0,913	 -35,645	 -0,113	 -27,381	 272,400	 
0,913	 -35,634	 -0,113	 -27,373	 272,500	 
0,913	 -35,624	 -0,112	 -27,362	 272,600	 
0,913	 -35,615	 -0,112	 -27,355	 272,700	 
0,913	 -35,605	 -0,113	 -27,348	 272,800	 
0,912	 -35,594	 -0,113	 -27,340	 272,900	 
0,912	 -35,587	 -0,113	 -27,334	 273,000	 
0,911	 -35,578	 -0,113	 -27,324	 273,100	 
0,911	 -35,562	 -0,112	 -27,315	 273,200	 
0,911	 -35,558	 -0,112	 -27,311	 273,300	 
0,910	 -35,544	 -0,112	 -27,302	 273,400	 
0,910	 -35,537	 -0,112	 -27,296	 273,500	 
0,910	 -35,526	 -0,113	 -27,289	 273,600	 
0,909	 -35,514	 -0,113	 -27,280	 273,700	 
0,909	 -35,502	 -0,112	 -27,271	 273,800	 
0,908	 -35,493	 -0,113	 -27,265	 273,900	 
0,908	 -35,483	 -0,113	 -27,256	 274,000	 
0,908	 -35,473	 -0,113	 -27,251	 274,100	 
0,906	 -35,465	 -0,113	 -27,242	 274,200	 
0,904	 -35,454	 -0,113	 -27,233	 274,300	 
0,906	 -35,444	 -0,112	 -27,227	 274,400	 
0,905	 -35,434	 -0,113	 -27,219	 274,500	 
0,905	 -35,425	 -0,113	 -27,211	 274,600	 
0,905	 -35,414	 -0,112	 -27,201	 274,700	 
0,904	 -35,407	 -0,112	 -27,195	 274,800	 
0,903	 -35,394	 -0,112	 -27,185	 274,900	 
0,903	 -35,384	 -0,113	 -27,177	 275,000	 
0,903	 -35,376	 -0,113	 -27,166	 275,100	 
0,904	 -35,366	 -0,113	 -27,162	 275,200	 
0,903	 -35,355	 -0,113	 -27,155	 275,300	 
0,902	 -35,346	 -0,112	 -27,147	 275,400	 
0,902	 -35,333	 -0,112	 -27,137	 275,500	 
0,902	 -35,323	 -0,113	 -27,132	 275,600	 
0,901	 -35,319	 -0,113	 -27,127	 275,700	 
0,902	 -35,303	 -0,113	 -27,115	 275,800	 
0,901	 -35,289	 -0,113	 -27,109	 275,900	 
0,899	 -35,285	 -0,113	 -27,101	 276,000	 
0,899	 -35,271	 -0,112	 -27,093	 276,100	 
0,899	 -35,264	 -0,112	 -27,085	 276,200	 
0,899	 -35,255	 -0,113	 -27,077	 276,300	 
0,900	 -35,244	 -0,113	 -27,068	 276,400	 
0,899	 -35,234	 -0,112	 -27,063	 276,500	 
0,896	 -35,226	 -0,113	 -27,058	 276,600	 
0,895	 -35,215	 -0,113	 -27,043	 276,700	 
0,896	 -35,204	 -0,112	 -27,041	 276,800	 
0,896	 -35,195	 -0,113	 -27,037	 276,900	 
0,896	 -35,183	 -0,112	 -27,025	 277,000	 
0,896	 -35,177	 -0,112	 -27,016	 277,100	 
0,895	 -35,166	 -0,113	 -27,010	 277,200	 
0,894	 -35,155	 -0,112	 -27,000	 277,300	 
0,895	 -35,144	 -0,113	 -26,992	 277,400	 
0,895	 -35,134	 -0,113	 -26,988	 277,500	 
0,894	 -35,126	 -0,112	 -26,978	 277,600	 
0,894	 -35,118	 -0,113	 -26,973	 277,700	 
0,894	 -35,106	 -0,113	 -26,965	 277,800	 
0,894	 -35,093	 -0,113	 -26,958	 277,900	 
0,892	 -35,083	 -0,112	 -26,945	 278,000	 
0,893	 -35,076	 -0,113	 -26,936	 278,100	 
0,893	 -35,065	 -0,113	 -26,928	 278,200	 
0,892	 -35,053	 -0,113	 -26,922	 278,300	 
0,890	 -35,047	 -0,113	 -26,914	 278,400	 
0,892	 -35,031	 -0,113	 -26,907	 278,500	 
0,891	 -35,021	 -0,112	 -26,899	 278,600	 
0,890	 -35,016	 -0,113	 -26,890	 278,700	 
0,890	 -35,004	 -0,112	 -26,884	 278,800	 
0,888	 -34,995	 -0,113	 -26,877	 278,900	 
0,888	 -34,987	 -0,113	 -26,872	 279,000	 
0,887	 -34,970	 -0,113	 -26,861	 279,100	 
0,889	 -34,962	 -0,113	 -26,851	 279,200	 
0,888	 -34,954	 -0,113	 -26,846	 279,300	 
0,888	 -34,942	 -0,112	 -26,839	 279,400	 
0,887	 -34,932	 -0,112	 -26,828	 279,500	 
0,885	 -34,925	 -0,113	 -26,826	 279,600	 
0,887	 -34,915	 -0,112	 -26,818	 279,700	 
0,886	 -34,905	 -0,113	 -26,805	 279,800	 
0,886	 -34,896	 -0,112	 -26,804	 279,900	 
0,885	 -34,887	 -0,112	 -26,794	 280,000	 
0,885	 -34,874	 -0,113	 -26,785	 280,100	 
0,885	 -34,860	 -0,113	 -26,780	 280,200	 
0,884	 -34,852	 -0,113	 -26,771	 280,300	 
0,884	 -34,842	 -0,113	 -26,763	 280,400	 
0,884	 -34,831	 -0,113	 -26,754	 280,500	 
0,883	 -34,825	 -0,113	 -26,748	 280,600	 
0,882	 -34,810	 -0,113	 -26,742	 280,700	 
0,882	 -34,804	 -0,112	 -26,733	 280,800	 
0,880	 -34,795	 -0,113	 -26,729	 280,900	 
0,882	 -34,780	 -0,112	 -26,718	 281,000	 
0,882	 -34,773	 -0,113	 -26,708	 281,100	 
0,876	 -34,763	 -0,112	 -26,702	 281,200	 
0,878	 -34,754	 -0,113	 -26,694	 281,300	 
0,879	 -34,746	 -0,113	 -26,686	 281,400	 
0,878	 -34,737	 -0,113	 -26,682	 281,500	 
0,879	 -34,723	 -0,112	 -26,669	 281,600	 
0,879	 -34,715	 -0,112	 -26,662	 281,700	 
0,877	 -34,705	 -0,113	 -26,658	 281,800	 
0,877	 -34,697	 -0,112	 -26,652	 281,900	 
0,877	 -34,687	 -0,113	 -26,642	 282,000	 
0,876	 -34,678	 -0,113	 -26,633	 282,100	 
0,876	 -34,665	 -0,113	 -26,630	 282,200	 
0,876	 -34,652	 -0,112	 -26,618	 282,300	 
0,876	 -34,644	 -0,113	 -26,609	 282,400	 
0,875	 -34,637	 -0,113	 -26,603	 282,500	 
0,876	 -34,623	 -0,112	 -26,595	 282,600	 
0,875	 -34,615	 -0,113	 -26,588	 282,700	 
0,874	 -34,608	 -0,113	 -26,583	 282,800	 
0,874	 -34,594	 -0,113	 -26,573	 282,900	 
0,874	 -34,587	 -0,113	 -26,566	 283,000	 
0,873	 -34,576	 -0,113	 -26,557	 283,100	 
0,872	 -34,561	 -0,112	 -26,548	 283,200	 
0,873	 -34,555	 -0,113	 -26,537	 283,300	 
0,872	 -34,549	 -0,113	 -26,533	 283,400	 
0,871	 -34,533	 -0,113	 -26,522	 283,500	 
0,871	 -34,523	 -0,113	 -26,516	 283,600	 
0,870	 -34,515	 -0,112	 -26,510	 283,700	 
0,871	 -34,508	 -0,113	 -26,500	 283,800	 
0,870	 -34,494	 -0,112	 -26,493	 283,900	 
0,870	 -34,487	 -0,113	 -26,487	 284,000	 
0,869	 -34,473	 -0,112	 -26,476	 284,100	 
0,869	 -34,466	 -0,113	 -26,471	 284,200	 
0,868	 -34,455	 -0,112	 -26,465	 284,300	 
0,869	 -34,444	 -0,112	 -26,452	 284,400	 
0,868	 -34,433	 -0,113	 -26,447	 284,500	 
0,867	 -34,423	 -0,112	 -26,440	 284,600	 
0,867	 -34,416	 -0,112	 -26,428	 284,700	 
0,867	 -34,401	 -0,112	 -26,423	 284,800	 
0,866	 -34,393	 -0,112	 -26,417	 284,900	 
0,866	 -34,383	 -0,113	 -26,407	 285,000	 
0,865	 -34,374	 -0,113	 -26,401	 285,100	 
0,865	 -34,366	 -0,113	 -26,390	 285,200	 
0,864	 -34,351	 -0,113	 -26,385	 285,300	 
0,865	 -34,344	 -0,113	 -26,377	 285,400	 
0,864	 -34,333	 -0,113	 -26,368	 285,500	 
0,864	 -34,326	 -0,113	 -26,363	 285,600	 
0,863	 -34,312	 -0,112	 -26,355	 285,700	 
0,862	 -34,307	 -0,112	 -26,346	 285,800	 
0,861	 -34,294	 -0,113	 -26,340	 285,900	 
0,861	 -34,284	 -0,112	 -26,330	 286,000	 
0,862	 -34,273	 -0,113	 -26,326	 286,100	 
0,860	 -34,262	 -0,113	 -26,318	 286,200	 
0,861	 -34,257	 -0,112	 -26,308	 286,300	 
0,860	 -34,244	 -0,113	 -26,302	 286,400	 
0,860	 -34,237	 -0,113	 -26,297	 286,500	 
0,859	 -34,228	 -0,113	 -26,285	 286,600	 
0,859	 -34,216	 -0,112	 -26,275	 286,700	 
0,858	 -34,205	 -0,113	 -26,267	 286,800	 
0,857	 -34,194	 -0,113	 -26,263	 286,900	 
0,857	 -34,185	 -0,112	 -26,257	 287,000	 
0,857	 -34,174	 -0,113	 -26,249	 287,100	 
0,856	 -34,166	 -0,113	 -26,242	 287,200	 
0,856	 -34,153	 -0,113	 -26,236	 287,300	 
0,857	 -34,144	 -0,112	 -26,225	 287,400	 
0,856	 -34,133	 -0,113	 -26,218	 287,500	 
0,855	 -34,127	 -0,112	 -26,213	 287,600	 
0,855	 -34,114	 -0,112	 -26,204	 287,700	 
0,854	 -34,107	 -0,113	 -26,197	 287,800	 
0,853	 -34,093	 -0,113	 -26,191	 287,900	 
0,852	 -34,080	 -0,113	 -26,180	 288,000	 
0,854	 -34,075	 -0,113	 -26,173	 288,100	 
0,852	 -34,066	 -0,112	 -26,164	 288,200	 
0,852	 -34,057	 -0,113	 -26,158	 288,300	 
0,852	 -34,044	 -0,112	 -26,151	 288,400	 
0,851	 -34,036	 -0,113	 -26,145	 288,500	 
0,851	 -34,023	 -0,113	 -26,134	 288,600	 
0,850	 -34,018	 -0,113	 -26,126	 288,700	 
0,849	 -34,009	 -0,113	 -26,119	 288,800	 
0,849	 -33,991	 -0,113	 -26,112	 288,900	 
0,850	 -33,984	 -0,113	 -26,105	 289,000	 
0,849	 -33,974	 -0,113	 -26,096	 289,100	 
0,848	 -33,965	 -0,113	 -26,092	 289,200	 
0,847	 -33,952	 -0,113	 -26,079	 289,300	 
0,847	 -33,945	 -0,113	 -26,069	 289,400	 
0,848	 -33,937	 -0,113	 -26,065	 289,500	 
0,847	 -33,924	 -0,113	 -26,058	 289,600	 
0,847	 -33,912	 -0,113	 -26,053	 289,700	 
0,845	 -33,903	 -0,113	 -26,041	 289,800	 
0,844	 -33,895	 -0,113	 -26,035	 289,900	 
0,844	 -33,886	 -0,113	 -26,031	 290,000	 
0,845	 -33,873	 -0,112	 -26,019	 290,100	 
0,844	 -33,863	 -0,113	 -26,013	 290,200	 
0,843	 -33,854	 -0,113	 -26,005	 290,300	 
0,844	 -33,844	 -0,112	 -25,996	 290,400	 
0,843	 -33,836	 -0,112	 -25,989	 290,500	 
0,841	 -33,824	 -0,113	 -25,983	 290,600	 
0,841	 -33,813	 -0,112	 -25,975	 290,700	 
0,842	 -33,805	 -0,112	 -25,964	 290,800	 
0,841	 -33,795	 -0,113	 -25,958	 290,900	 
0,840	 -33,785	 -0,113	 -25,948	 291,000	 
0,839	 -33,773	 -0,113	 -25,940	 291,100	 
0,839	 -33,763	 -0,113	 -25,932	 291,200	 
0,839	 -33,753	 -0,113	 -25,926	 291,300	 
0,839	 -33,743	 -0,113	 -25,919	 291,400	 
0,838	 -33,734	 -0,113	 -25,909	 291,500	 
0,837	 -33,724	 -0,113	 -25,903	 291,600	 
0,838	 -33,715	 -0,113	 -25,891	 291,700	 
0,838	 -33,703	 -0,112	 -25,880	 291,800	 
0,836	 -33,694	 -0,113	 -25,878	 291,900	 
0,836	 -33,693	 -0,113	 -25,871	 292,000	 
0,836	 -33,672	 -0,113	 -25,859	 292,100	 
0,835	 -33,664	 -0,113	 -25,852	 292,200	 
0,835	 -33,655	 -0,112	 -25,846	 292,300	 
0,835	 -33,650	 -0,113	 -25,837	 292,400	 
0,834	 -33,636	 -0,112	 -25,832	 292,500	 
0,833	 -33,626	 -0,113	 -25,825	 292,600	 
0,832	 -33,614	 -0,113	 -25,818	 292,700	 
0,833	 -33,604	 -0,112	 -25,807	 292,800	 
0,832	 -33,592	 -0,113	 -25,799	 292,900	 
0,832	 -33,586	 -0,113	 -25,792	 293,000	 
0,831	 -33,575	 -0,113	 -25,783	 293,100	 
0,831	 -33,566	 -0,113	 -25,777	 293,200	 
0,830	 -33,555	 -0,113	 -25,769	 293,300	 
0,830	 -33,545	 -0,113	 -25,762	 293,400	 
0,830	 -33,534	 -0,113	 -25,752	 293,500	 
0,829	 -33,523	 -0,113	 -25,748	 293,600	 
0,829	 -33,518	 -0,113	 -25,737	 293,700	 
0,828	 -33,509	 -0,113	 -25,735	 293,800	 
0,827	 -33,497	 -0,112	 -25,725	 293,900	 
0,826	 -33,486	 -0,113	 -25,718	 294,000	 
0,827	 -33,473	 -0,112	 -25,709	 294,100	 
0,826	 -33,466	 -0,113	 -25,700	 294,200	 
0,825	 -33,452	 -0,113	 -25,692	 294,300	 
0,825	 -33,443	 -0,113	 -25,685	 294,400	 
0,825	 -33,434	 -0,112	 -25,677	 294,500	 
0,824	 -33,425	 -0,113	 -25,670	 294,600	 
0,824	 -33,415	 -0,113	 -25,665	 294,700	 
0,823	 -33,406	 -0,113	 -25,654	 294,800	 
0,823	 -33,391	 -0,113	 -25,647	 294,900	 
0,821	 -33,385	 -0,113	 -25,641	 295,000	 
0,821	 -33,374	 -0,112	 -25,633	 295,100	 
0,822	 -33,365	 -0,113	 -25,625	 295,200	 
0,820	 -33,356	 -0,113	 -25,615	 295,300	 
0,820	 -33,345	 -0,113	 -25,612	 295,400	 
0,819	 -33,334	 -0,112	 -25,603	 295,500	 
0,819	 -33,323	 -0,112	 -25,595	 295,600	 
0,819	 -33,313	 -0,113	 -25,592	 295,700	 
0,820	 -33,305	 -0,113	 -25,576	 295,800	 
0,818	 -33,297	 -0,113	 -25,572	 295,900	 
0,818	 -33,281	 -0,112	 -25,566	 296,000	 
0,818	 -33,274	 -0,112	 -25,555	 296,100	 
0,818	 -33,262	 -0,113	 -25,548	 296,200	 
0,818	 -33,252	 -0,113	 -25,539	 296,300	 
0,817	 -33,243	 -0,113	 -25,537	 296,400	 
0,816	 -33,233	 -0,113	 -25,526	 296,500	 
0,815	 -33,223	 -0,113	 -25,520	 296,600	 
0,814	 -33,217	 -0,113	 -25,511	 296,700	 
0,814	 -33,201	 -0,113	 -25,505	 296,800	 
0,813	 -33,193	 -0,112	 -25,499	 296,900	 
0,813	 -33,184	 -0,112	 -25,489	 297,000	 
0,813	 -33,174	 -0,113	 -25,478	 297,100	 
0,811	 -33,159	 -0,113	 -25,471	 297,200	 
0,812	 -33,152	 -0,113	 -25,462	 297,300	 
0,811	 -33,143	 -0,113	 -25,459	 297,400	 
0,810	 -33,136	 -0,113	 -25,451	 297,500	 
0,810	 -33,123	 -0,113	 -25,441	 297,600	 
0,810	 -33,112	 -0,113	 -25,435	 297,700	 
0,810	 -33,106	 -0,113	 -25,426	 297,800	 
0,809	 -33,095	 -0,113	 -25,420	 297,900	 
0,808	 -33,083	 -0,113	 -25,412	 298,000	 
0,808	 -33,079	 -0,113	 -25,406	 298,100	 
0,808	 -33,065	 -0,113	 -25,395	 298,200	 
0,807	 -33,052	 -0,112	 -25,389	 298,300	 
0,807	 -33,041	 -0,112	 -25,380	 298,400	 
0,807	 -33,031	 -0,113	 -25,374	 298,500	 
0,806	 -33,023	 -0,112	 -25,363	 298,600	 
0,805	 -33,015	 -0,112	 -25,361	 298,700	 
0,805	 -33,002	 -0,112	 -25,354	 298,800	 
0,803	 -32,994	 -0,113	 -25,343	 298,900	 
0,804	 -32,982	 -0,112	 -25,335	 299,000	 
0,804	 -32,972	 -0,113	 -25,329	 299,100	 
0,802	 -32,962	 -0,113	 -25,321	 299,200	 
0,802	 -32,953	 -0,113	 -25,313	 299,300	 
0,801	 -32,942	 -0,112	 -25,305	 299,400	 
0,801	 -32,935	 -0,113	 -25,296	 299,500	 
0,800	 -32,924	 -0,113	 -25,288	 299,600	 
0,801	 -32,915	 -0,113	 -25,280	 299,700	 
0,801	 -32,903	 -0,113	 -25,274	 299,800	 
0,800	 -32,893	 -0,113	 -25,267	 299,900	 
0,799	 -32,888	 -0,112	 -25,259	 300,000	 
0,798	 -32,874	 -0,113	 -25,253	 300,100	 
0,798	 -32,867	 -0,112	 -25,241	 300,200	 
0,795	 -32,854	 -0,112	 -25,235	 300,300	 
0,796	 -32,842	 -0,113	 -25,225	 300,400	 
0,796	 -32,831	 -0,113	 -25,219	 300,500	 
0,796	 -32,824	 -0,113	 -25,210	 300,600	 
0,795	 -32,812	 -0,113	 -25,203	 300,700	 
0,796	 -32,803	 -0,112	 -25,193	 300,800	 
0,794	 -32,793	 -0,113	 -25,188	 300,900	 
0,793	 -32,784	 -0,113	 -25,181	 301,000	 
0,793	 -32,774	 -0,112	 -25,168	 301,100	 
0,793	 -32,760	 -0,112	 -25,164	 301,200	 
0,792	 -32,753	 -0,112	 -25,156	 301,300	 
0,792	 -32,744	 -0,112	 -25,147	 301,400	 
0,792	 -32,731	 -0,112	 -25,141	 301,500	 
0,791	 -32,724	 -0,113	 -25,133	 301,600	 
0,789	 -32,713	 -0,113	 -25,124	 301,700	 
0,789	 -32,705	 -0,113	 -25,113	 301,800	 
0,789	 -32,694	 -0,113	 -25,115	 301,900	 
0,788	 -32,681	 -0,112	 -25,102	 302,000	 
0,789	 -32,673	 -0,113	 -25,098	 302,100	 
0,788	 -32,663	 -0,113	 -25,089	 302,200	 
0,787	 -32,653	 -0,113	 -25,082	 302,300	 
0,786	 -32,644	 -0,113	 -25,071	 302,400	 
0,786	 -32,635	 -0,113	 -25,065	 302,500	 
0,785	 -32,622	 -0,112	 -25,057	 302,600	 
0,785	 -32,611	 -0,112	 -25,048	 302,700	 
0,784	 -32,603	 -0,112	 -25,043	 302,800	 
0,784	 -32,592	 -0,113	 -25,034	 302,900	 
0,783	 -32,581	 -0,112	 -25,027	 303,000	 
0,782	 -32,572	 -0,113	 -25,022	 303,100	 
0,782	 -32,567	 -0,113	 -25,012	 303,200	 
0,781	 -32,553	 -0,112	 -25,001	 303,300	 
0,782	 -32,542	 -0,112	 -24,999	 303,400	 
0,781	 -32,535	 -0,112	 -24,986	 303,500	 
0,780	 -32,524	 -0,112	 -24,979	 303,600	 
0,779	 -32,511	 -0,112	 -24,970	 303,700	 
0,779	 -32,503	 -0,112	 -24,962	 303,800	 
0,778	 -32,494	 -0,113	 -24,957	 303,900	 
0,777	 -32,482	 -0,112	 -24,946	 304,000	 
0,777	 -32,474	 -0,113	 -24,940	 304,100	 
0,777	 -32,463	 -0,113	 -24,933	 304,200	 
0,776	 -32,453	 -0,113	 -24,924	 304,300	 
0,776	 -32,448	 -0,113	 -24,918	 304,400	 
0,776	 -32,432	 -0,112	 -24,910	 304,500	 
0,775	 -32,425	 -0,113	 -24,902	 304,600	 
0,774	 -32,415	 -0,113	 -24,896	 304,700	 
0,774	 -32,403	 -0,113	 -24,887	 304,800	 
0,773	 -32,392	 -0,113	 -24,878	 304,900	 
0,773	 -32,382	 -0,112	 -24,870	 305,000	 
0,773	 -32,374	 -0,113	 -24,865	 305,100	 
0,773	 -32,367	 -0,112	 -24,857	 305,200	 
0,770	 -32,355	 -0,112	 -24,852	 305,300	 
0,771	 -32,346	 -0,113	 -24,843	 305,400	 
0,771	 -32,337	 -0,112	 -24,834	 305,500	 
0,769	 -32,324	 -0,113	 -24,828	 305,600	 
0,770	 -32,314	 -0,112	 -24,817	 305,700	 
0,768	 -32,307	 -0,113	 -24,812	 305,800	 
0,767	 -32,295	 -0,113	 -24,804	 305,900	 
0,768	 -32,283	 -0,112	 -24,795	 306,000	 
0,767	 -32,275	 -0,113	 -24,789	 306,100	 
0,766	 -32,260	 -0,112	 -24,778	 306,200	 
0,764	 -32,254	 -0,113	 -24,773	 306,300	 
0,765	 -32,242	 -0,113	 -24,764	 306,400	 
0,764	 -32,235	 -0,113	 -24,758	 306,500	 
0,763	 -32,225	 -0,113	 -24,748	 306,600	 
0,763	 -32,216	 -0,113	 -24,743	 306,700	 
0,763	 -32,203	 -0,113	 -24,735	 306,800	 
0,761	 -32,196	 -0,113	 -24,726	 306,900	 
0,761	 -32,182	 -0,113	 -24,718	 307,000	 
0,761	 -32,175	 -0,112	 -24,712	 307,100	 
0,761	 -32,164	 -0,112	 -24,704	 307,200	 
0,759	 -32,153	 -0,113	 -24,697	 307,300	 
0,759	 -32,145	 -0,113	 -24,690	 307,400	 
0,760	 -32,132	 -0,112	 -24,682	 307,500	 
0,758	 -32,125	 -0,113	 -24,675	 307,600	 
0,757	 -32,112	 -0,113	 -24,663	 307,700	 
0,758	 -32,103	 -0,112	 -24,655	 307,800	 
0,756	 -32,096	 -0,113	 -24,651	 307,900	 
0,755	 -32,083	 -0,113	 -24,642	 308,000	 
0,755	 -32,075	 -0,112	 -24,633	 308,100	 
0,755	 -32,063	 -0,112	 -24,629	 308,200	 
0,754	 -32,054	 -0,113	 -24,621	 308,300	 
0,753	 -32,043	 -0,113	 -24,615	 308,400	 
0,754	 -32,034	 -0,112	 -24,607	 308,500	 
0,752	 -32,024	 -0,113	 -24,599	 308,600	 
0,751	 -32,015	 -0,113	 -24,585	 308,700	 
0,751	 -32,007	 -0,113	 -24,581	 308,800	 
0,751	 -31,996	 -0,112	 -24,572	 308,900	 
0,750	 -31,985	 -0,113	 -24,566	 309,000	 
0,750	 -31,980	 -0,113	 -24,557	 309,100	 
0,748	 -31,962	 -0,113	 -24,550	 309,200	 
0,747	 -31,954	 -0,113	 -24,541	 309,300	 
0,748	 -31,944	 -0,112	 -24,533	 309,400	 
0,747	 -31,933	 -0,113	 -24,524	 309,500	 
0,746	 -31,924	 -0,112	 -24,517	 309,600	 
0,746	 -31,916	 -0,113	 -24,512	 309,700	 
0,746	 -31,905	 -0,113	 -24,500	 309,800	 
0,745	 -31,896	 -0,113	 -24,497	 309,900	 
0,743	 -31,882	 -0,113	 -24,487	 310,000	 
0,743	 -31,871	 -0,113	 -24,476	 310,100	 
0,743	 -31,861	 -0,113	 -24,469	 310,200	 
0,742	 -31,854	 -0,113	 -24,462	 310,300	 
0,742	 -31,846	 -0,113	 -24,455	 310,400	 
0,742	 -31,837	 -0,112	 -24,451	 310,500	 
0,741	 -31,825	 -0,113	 -24,440	 310,600	 
0,740	 -31,818	 -0,113	 -24,436	 310,700	 
0,740	 -31,806	 -0,113	 -24,433	 310,800	 
0,738	 -31,793	 -0,112	 -24,417	 310,900	 
0,738	 -31,784	 -0,113	 -24,411	 311,000	 
0,737	 -31,775	 -0,113	 -24,406	 311,100	 
0,738	 -31,764	 -0,113	 -24,396	 311,200	 
0,736	 -31,754	 -0,112	 -24,385	 311,300	 
0,735	 -31,743	 -0,113	 -24,381	 311,400	 
0,734	 -31,735	 -0,113	 -24,372	 311,500	 
0,734	 -31,726	 -0,113	 -24,367	 311,600	 
0,734	 -31,714	 -0,113	 -24,357	 311,700	 
0,733	 -31,704	 -0,112	 -24,356	 311,800	 
0,733	 -31,693	 -0,113	 -24,344	 311,900	 
0,733	 -31,686	 -0,113	 -24,335	 312,000	 
0,732	 -31,678	 -0,112	 -24,330	 312,100	 
0,732	 -31,666	 -0,113	 -24,322	 312,200	 
0,731	 -31,654	 -0,113	 -24,312	 312,300	 
0,731	 -31,646	 -0,113	 -24,306	 312,400	 
0,730	 -31,632	 -0,113	 -24,293	 312,500	 
0,730	 -31,625	 -0,112	 -24,286	 312,600	 
0,730	 -31,614	 -0,112	 -24,280	 312,700	 
0,730	 -31,603	 -0,113	 -24,274	 312,800	 
0,728	 -31,596	 -0,113	 -24,264	 312,900	 
0,727	 -31,583	 -0,112	 -24,258	 313,000	 
0,727	 -31,575	 -0,112	 -24,251	 313,100	 
0,725	 -31,566	 -0,113	 -24,246	 313,200	 
0,725	 -31,553	 -0,112	 -24,237	 313,300	 
0,725	 -31,543	 -0,112	 -24,226	 313,400	 
0,725	 -31,531	 -0,112	 -24,219	 313,500	 
0,724	 -31,522	 -0,113	 -24,213	 313,600	 
0,724	 -31,514	 -0,113	 -24,204	 313,700	 
0,723	 -31,507	 -0,112	 -24,196	 313,800	 
0,722	 -31,496	 -0,112	 -24,190	 313,900	 
0,722	 -31,486	 -0,113	 -24,182	 314,000	 
0,721	 -31,477	 -0,113	 -24,174	 314,100	 
0,721	 -31,462	 -0,113	 -24,166	 314,200	 
0,720	 -31,454	 -0,112	 -24,156	 314,300	 
0,720	 -31,446	 -0,113	 -24,153	 314,400	 
0,720	 -31,438	 -0,113	 -24,147	 314,500	 
0,719	 -31,425	 -0,112	 -24,136	 314,600	 
0,718	 -31,408	 -0,113	 -24,129	 314,700	 
0,718	 -31,406	 -0,112	 -24,122	 314,800	 
0,717	 -31,397	 -0,113	 -24,114	 314,900	 
0,716	 -31,384	 -0,113	 -24,107	 315,000	 
0,716	 -31,374	 -0,112	 -24,096	 315,100	 
0,716	 -31,365	 -0,112	 -24,091	 315,200	 
0,714	 -31,354	 -0,113	 -24,083	 315,300	 
0,715	 -31,347	 -0,113	 -24,074	 315,400	 
0,714	 -31,332	 -0,112	 -24,069	 315,500	 
0,713	 -31,325	 -0,113	 -24,061	 315,600	 
0,712	 -31,316	 -0,113	 -24,054	 315,700	 
0,712	 -31,303	 -0,113	 -24,048	 315,800	 
0,711	 -31,297	 -0,112	 -24,034	 315,900	 
0,711	 -31,286	 -0,113	 -24,030	 316,000	 
0,711	 -31,272	 -0,113	 -24,022	 316,100	 
0,709	 -31,264	 -0,113	 -24,011	 316,200	 
0,709	 -31,254	 -0,113	 -24,004	 316,300	 
0,708	 -31,247	 -0,113	 -23,996	 316,400	 
0,707	 -31,236	 -0,112	 -23,982	 316,500	 
0,707	 -31,225	 -0,113	 -23,982	 316,600	 
0,707	 -31,210	 -0,113	 -23,973	 316,700	 
0,707	 -31,204	 -0,113	 -23,962	 316,800	 
0,707	 -31,192	 -0,112	 -23,957	 316,900	 
0,705	 -31,183	 -0,112	 -23,951	 317,000	 
0,705	 -31,172	 -0,113	 -23,941	 317,100	 
0,705	 -31,161	 -0,112	 -23,933	 317,200	 
0,703	 -31,154	 -0,113	 -23,923	 317,300	 
0,703	 -31,143	 -0,113	 -23,918	 317,400	 
0,702	 -31,130	 -0,112	 -23,906	 317,500	 
0,701	 -31,126	 -0,113	 -23,899	 317,600	 
0,700	 -31,112	 -0,113	 -23,895	 317,700	 
0,701	 -31,104	 -0,113	 -23,886	 317,800	 
0,699	 -31,095	 -0,112	 -23,878	 317,900	 
0,699	 -31,084	 -0,113	 -23,871	 318,000	 
0,698	 -31,074	 -0,113	 -23,863	 318,100	 
0,698	 -31,065	 -0,113	 -23,857	 318,200	 
0,697	 -31,054	 -0,113	 -23,850	 318,300	 
0,697	 -31,043	 -0,113	 -23,841	 318,400	 
0,696	 -31,032	 -0,113	 -23,833	 318,500	 
0,695	 -31,025	 -0,113	 -23,826	 318,600	 
0,695	 -31,016	 -0,113	 -23,819	 318,700	 
0,694	 -31,007	 -0,113	 -23,812	 318,800	 
0,694	 -30,996	 -0,113	 -23,807	 318,900	 
0,693	 -30,984	 -0,113	 -23,792	 319,000	 
0,693	 -30,977	 -0,113	 -23,789	 319,100	 
0,692	 -30,969	 -0,113	 -23,783	 319,200	 
0,691	 -30,955	 -0,113	 -23,770	 319,300	 
0,691	 -30,943	 -0,113	 -23,761	 319,400	 
0,691	 -30,935	 -0,113	 -23,756	 319,500	 
0,689	 -30,926	 -0,113	 -23,752	 319,600	 
0,689	 -30,915	 -0,113	 -23,742	 319,700	 
0,688	 -30,903	 -0,113	 -23,735	 319,800	 
0,688	 -30,895	 -0,112	 -23,728	 319,900	 
0,686	 -30,883	 -0,113	 -23,717	 320,000	 
0,685	 -30,875	 -0,113	 -23,712	 320,100	 
0,685	 -30,863	 -0,112	 -23,708	 320,200	 
0,685	 -30,853	 -0,112	 -23,692	 320,300	 
0,685	 -30,843	 -0,112	 -23,689	 320,400	 
0,684	 -30,832	 -0,113	 -23,680	 320,500	 
0,683	 -30,821	 -0,113	 -23,671	 320,600	 
0,683	 -30,814	 -0,113	 -23,665	 320,700	 
0,682	 -30,802	 -0,112	 -23,659	 320,800	 
0,681	 -30,797	 -0,113	 -23,653	 320,900	 
0,680	 -30,783	 -0,112	 -23,643	 321,000	 
0,680	 -30,775	 -0,113	 -23,635	 321,100	 
0,680	 -30,767	 -0,113	 -23,628	 321,200	 
0,679	 -30,754	 -0,113	 -23,620	 321,300	 
0,678	 -30,745	 -0,113	 -23,613	 321,400	 
0,678	 -30,733	 -0,113	 -23,605	 321,500	 
0,677	 -30,722	 -0,112	 -23,597	 321,600	 
0,676	 -30,712	 -0,112	 -23,588	 321,700	 
0,674	 -30,706	 -0,113	 -23,584	 321,800	 
0,674	 -30,690	 -0,112	 -23,574	 321,900	 
0,673	 -30,683	 -0,112	 -23,565	 322,000	 
0,674	 -30,674	 -0,112	 -23,558	 322,100	 
0,673	 -30,665	 -0,112	 -23,554	 322,200	 
0,671	 -30,654	 -0,113	 -23,544	 322,300	 
0,671	 -30,647	 -0,112	 -23,534	 322,400	 
0,672	 -30,637	 -0,113	 -23,529	 322,500	 
0,670	 -30,625	 -0,113	 -23,521	 322,600	 
0,669	 -30,612	 -0,113	 -23,513	 322,700	 
0,669	 -30,605	 -0,113	 -23,501	 322,800	 
0,669	 -30,597	 -0,112	 -23,495	 322,900	 
0,668	 -30,582	 -0,113	 -23,489	 323,000	 
0,668	 -30,574	 -0,113	 -23,483	 323,100	 
0,667	 -30,564	 -0,112	 -23,476	 323,200	 
0,666	 -30,554	 -0,113	 -23,467	 323,300	 
0,666	 -30,545	 -0,112	 -23,456	 323,400	 
0,665	 -30,539	 -0,113	 -23,453	 323,500	 
0,664	 -30,525	 -0,113	 -23,443	 323,600	 
0,664	 -30,517	 -0,113	 -23,436	 323,700	 
0,664	 -30,505	 -0,113	 -23,428	 323,800	 
0,663	 -30,497	 -0,112	 -23,419	 323,900	 
0,662	 -30,483	 -0,113	 -23,413	 324,000	 
0,662	 -30,476	 -0,113	 -23,407	 324,100	 
0,661	 -30,465	 -0,113	 -23,397	 324,200	 
0,661	 -30,456	 -0,113	 -23,393	 324,300	 
0,660	 -30,445	 -0,113	 -23,386	 324,400	 
0,660	 -30,433	 -0,113	 -23,373	 324,500	 
0,659	 -30,423	 -0,112	 -23,369	 324,600	 
0,658	 -30,415	 -0,113	 -23,358	 324,700	 
0,658	 -30,405	 -0,113	 -23,353	 324,800	 
0,657	 -30,396	 -0,112	 -23,347	 324,900	 
0,654	 -30,384	 -0,112	 -23,336	 325,000	 
0,654	 -30,376	 -0,112	 -23,332	 325,100	 
0,653	 -30,367	 -0,113	 -23,324	 325,200	 
0,654	 -30,354	 -0,113	 -23,314	 325,300	 
0,654	 -30,345	 -0,112	 -23,307	 325,400	 
0,653	 -30,333	 -0,112	 -23,299	 325,500	 
0,652	 -30,326	 -0,112	 -23,294	 325,600	 
0,652	 -30,317	 -0,113	 -23,282	 325,700	 
0,654	 -30,303	 -0,112	 -23,272	 325,800	 
0,652	 -30,297	 -0,113	 -23,268	 325,900	 
0,652	 -30,283	 -0,113	 -23,259	 326,000	 
0,650	 -30,275	 -0,113	 -23,253	 326,100	 
0,650	 -30,267	 -0,113	 -23,242	 326,200	 
0,649	 -30,255	 -0,113	 -23,231	 326,300	 
0,649	 -30,246	 -0,112	 -23,228	 326,400	 
0,648	 -30,233	 -0,112	 -23,221	 326,500	 
0,648	 -30,224	 -0,113	 -23,212	 326,600	 
0,647	 -30,213	 -0,113	 -23,203	 326,700	 
0,647	 -30,207	 -0,113	 -23,199	 326,800	 
0,646	 -30,198	 -0,113	 -23,190	 326,900	 
0,644	 -30,184	 -0,113	 -23,184	 327,000	 
0,645	 -30,175	 -0,113	 -23,174	 327,100	 
0,642	 -30,163	 -0,113	 -23,165	 327,200	 
0,642	 -30,154	 -0,113	 -23,158	 327,300	 
0,642	 -30,144	 -0,113	 -23,152	 327,400	 
0,641	 -30,134	 -0,112	 -23,144	 327,500	 
0,642	 -30,126	 -0,112	 -23,136	 327,600	 
0,641	 -30,118	 -0,113	 -23,131	 327,700	 
0,640	 -30,108	 -0,113	 -23,121	 327,800	 
0,640	 -30,098	 -0,113	 -23,114	 327,900	 
0,639	 -30,089	 -0,112	 -23,103	 328,000	 
0,640	 -30,075	 -0,112	 -23,094	 328,100	 
0,639	 -30,066	 -0,112	 -23,093	 328,200	 
0,638	 -30,056	 -0,113	 -23,084	 328,300	 
0,637	 -30,044	 -0,113	 -23,077	 328,400	 
0,637	 -30,034	 -0,112	 -23,071	 328,500	 
0,636	 -30,027	 -0,113	 -23,061	 328,600	 
0,635	 -30,013	 -0,113	 -23,051	 328,700	 
0,635	 -30,004	 -0,113	 -23,049	 328,800	 
0,634	 -29,995	 -0,113	 -23,028	 328,900	 
0,634	 -29,983	 -0,112	 -23,026	 329,000	 
0,634	 -29,974	 -0,113	 -23,019	 329,100	 
0,633	 -29,971	 -0,112	 -23,012	 329,200	 
0,632	 -29,957	 -0,112	 -23,006	 329,300	 
0,632	 -29,944	 -0,113	 -22,994	 329,400	 
0,631	 -29,935	 -0,112	 -22,990	 329,500	 
0,630	 -29,926	 -0,113	 -22,984	 329,600	 
0,629	 -29,912	 -0,113	 -22,973	 329,700	 
0,628	 -29,903	 -0,113	 -22,964	 329,800	 
0,627	 -29,894	 -0,113	 -22,957	 329,900	 
0,627	 -29,883	 -0,113	 -22,951	 330,000	 
0,627	 -29,874	 -0,113	 -22,942	 330,100	 
0,626	 -29,864	 -0,113	 -22,934	 330,200	 
0,626	 -29,857	 -0,112	 -22,926	 330,300	 
0,624	 -29,843	 -0,113	 -22,922	 330,400	 
0,623	 -29,836	 -0,112	 -22,913	 330,500	 
0,624	 -29,829	 -0,112	 -22,904	 330,600	 
0,622	 -29,814	 -0,113	 -22,898	 330,700	 
0,622	 -29,803	 -0,113	 -22,889	 330,800	 
0,622	 -29,794	 -0,113	 -22,880	 330,900	 
0,619	 -29,785	 -0,113	 -22,874	 331,000	 
0,620	 -29,776	 -0,112	 -22,864	 331,100	 
0,619	 -29,764	 -0,113	 -22,858	 331,200	 
0,619	 -29,757	 -0,113	 -22,850	 331,300	 
0,616	 -29,748	 -0,113	 -22,844	 331,400	 
0,616	 -29,734	 -0,113	 -22,834	 331,500	 
0,616	 -29,723	 -0,113	 -22,826	 331,600	 
0,615	 -29,715	 -0,113	 -22,820	 331,700	 
0,615	 -29,703	 -0,113	 -22,814	 331,800	 
0,614	 -29,698	 -0,112	 -22,803	 331,900	 
0,613	 -29,686	 -0,113	 -22,797	 332,000	 
0,612	 -29,674	 -0,113	 -22,789	 332,100	 
0,612	 -29,665	 -0,113	 -22,784	 332,200	 
0,612	 -29,656	 -0,113	 -22,774	 332,300	 
0,610	 -29,645	 -0,113	 -22,765	 332,400	 
0,610	 -29,636	 -0,113	 -22,759	 332,500	 
0,610	 -29,624	 -0,112	 -22,749	 332,600	 
0,608	 -29,613	 -0,112	 -22,742	 332,700	 
0,608	 -29,605	 -0,113	 -22,738	 332,800	 
0,608	 -29,592	 -0,112	 -22,731	 332,900	 
0,606	 -29,587	 -0,113	 -22,721	 333,000	 
0,605	 -29,575	 -0,113	 -22,713	 333,100	 
0,604	 -29,567	 -0,113	 -22,707	 333,200	 
0,604	 -29,560	 -0,113	 -22,699	 333,300	 
0,604	 -29,546	 -0,113	 -22,689	 333,400	 
0,602	 -29,533	 -0,113	 -22,681	 333,500	 
0,603	 -29,528	 -0,112	 -22,675	 333,600	 
0,602	 -29,517	 -0,113	 -22,668	 333,700	 
0,600	 -29,505	 -0,113	 -22,660	 333,800	 
0,600	 -29,496	 -0,113	 -22,654	 333,900	 
0,600	 -29,489	 -0,113	 -22,647	 334,000	 
0,598	 -29,476	 -0,113	 -22,639	 334,100	 
0,597	 -29,467	 -0,113	 -22,628	 334,200	 
0,597	 -29,454	 -0,113	 -22,617	 334,300	 
0,596	 -29,445	 -0,113	 -22,610	 334,400	 
0,597	 -29,433	 -0,113	 -22,603	 334,500	 
0,596	 -29,425	 -0,112	 -22,597	 334,600	 
0,595	 -29,417	 -0,113	 -22,588	 334,700	 
0,595	 -29,410	 -0,113	 -22,580	 334,800	 
0,593	 -29,395	 -0,113	 -22,573	 334,900	 
0,592	 -29,388	 -0,112	 -22,567	 335,000	 
0,593	 -29,376	 -0,113	 -22,560	 335,100	 
0,591	 -29,365	 -0,113	 -22,547	 335,200	 
0,591	 -29,356	 -0,113	 -22,543	 335,300	 
0,590	 -29,344	 -0,112	 -22,536	 335,400	 
0,589	 -29,337	 -0,113	 -22,528	 335,500	 
0,589	 -29,326	 -0,113	 -22,521	 335,600	 
0,589	 -29,312	 -0,112	 -22,510	 335,700	 
0,587	 -29,307	 -0,113	 -22,510	 335,800	 
0,587	 -29,295	 -0,112	 -22,497	 335,900	 
0,586	 -29,285	 -0,113	 -22,490	 336,000	 
0,586	 -29,267	 -0,112	 -22,479	 336,100	 
0,585	 -29,268	 -0,112	 -22,475	 336,200	 
0,586	 -29,251	 -0,112	 -22,466	 336,300	 
0,585	 -29,247	 -0,113	 -22,459	 336,400	 
0,583	 -29,234	 -0,113	 -22,452	 336,500	 
0,583	 -29,227	 -0,112	 -22,444	 336,600	 
0,582	 -29,219	 -0,113	 -22,439	 336,700	 
0,582	 -29,206	 -0,112	 -22,429	 336,800	 
0,581	 -29,196	 -0,113	 -22,422	 336,900	 
0,581	 -29,185	 -0,113	 -22,413	 337,000	 
0,581	 -29,174	 -0,113	 -22,404	 337,100	 
0,579	 -29,164	 -0,112	 -22,398	 337,200	 
0,578	 -29,157	 -0,113	 -22,389	 337,300	 
0,580	 -29,150	 -0,113	 -22,382	 337,400	 
0,577	 -29,135	 -0,112	 -22,375	 337,500	 
0,577	 -29,125	 -0,112	 -22,367	 337,600	 
0,576	 -29,112	 -0,112	 -22,361	 337,700	 
0,576	 -29,110	 -0,112	 -22,353	 337,800	 
0,575	 -29,098	 -0,113	 -22,345	 337,900	 
0,573	 -29,091	 -0,113	 -22,338	 338,000	 
0,573	 -29,075	 -0,113	 -22,327	 338,100	 
0,572	 -29,065	 -0,112	 -22,323	 338,200	 
0,572	 -29,051	 -0,112	 -22,312	 338,300	 
0,571	 -29,049	 -0,113	 -22,308	 338,400	 
0,571	 -29,037	 -0,113	 -22,299	 338,500	 
0,571	 -29,025	 -0,113	 -22,292	 338,600	 
0,570	 -29,016	 -0,112	 -22,286	 338,700	 
0,569	 -29,005	 -0,112	 -22,275	 338,800	 
0,568	 -29,000	 -0,113	 -22,270	 338,900	 
0,568	 -28,987	 -0,113	 -22,264	 339,000	 
0,568	 -28,973	 -0,112	 -22,252	 339,100	 
0,566	 -28,966	 -0,113	 -22,245	 339,200	 
0,566	 -28,957	 -0,113	 -22,238	 339,300	 
0,566	 -28,946	 -0,112	 -22,233	 339,400	 
0,564	 -28,936	 -0,112	 -22,224	 339,500	 
0,564	 -28,923	 -0,113	 -22,215	 339,600	 
0,564	 -28,916	 -0,113	 -22,205	 339,700	 
0,563	 -28,908	 -0,113	 -22,203	 339,800	 
0,561	 -28,897	 -0,112	 -22,191	 339,900	 
0,560	 -28,888	 -0,113	 -22,187	 340,000	 
0,560	 -28,875	 -0,113	 -22,177	 340,100	 
0,560	 -28,865	 -0,112	 -22,169	 340,200	 
0,559	 -28,856	 -0,112	 -22,160	 340,300	 
0,559	 -28,845	 -0,112	 -22,157	 340,400	 
0,557	 -28,835	 -0,112	 -22,146	 340,500	 
0,556	 -28,825	 -0,112	 -22,139	 340,600	 
0,556	 -28,815	 -0,112	 -22,133	 340,700	 
0,556	 -28,804	 -0,113	 -22,122	 340,800	 
0,555	 -28,796	 -0,112	 -22,119	 340,900	 
0,553	 -28,786	 -0,113	 -22,111	 341,000	 
0,553	 -28,776	 -0,112	 -22,100	 341,100	 
0,553	 -28,766	 -0,113	 -22,091	 341,200	 
0,552	 -28,754	 -0,112	 -22,087	 341,300	 
0,552	 -28,744	 -0,113	 -22,078	 341,400	 
0,551	 -28,733	 -0,113	 -22,072	 341,500	 
0,550	 -28,727	 -0,112	 -22,065	 341,600	 
0,549	 -28,715	 -0,112	 -22,050	 341,700	 
0,549	 -28,704	 -0,113	 -22,044	 341,800	 
0,548	 -28,696	 -0,113	 -22,034	 341,900	 
0,546	 -28,687	 -0,113	 -22,030	 342,000	 
0,546	 -28,676	 -0,113	 -22,021	 342,100	 
0,545	 -28,666	 -0,113	 -22,013	 342,200	 
0,544	 -28,654	 -0,113	 -22,006	 342,300	 
0,544	 -28,646	 -0,112	 -21,999	 342,400	 
0,544	 -28,636	 -0,113	 -21,992	 342,500	 
0,542	 -28,624	 -0,112	 -21,983	 342,600	 
0,542	 -28,618	 -0,112	 -21,973	 342,700	 
0,541	 -28,605	 -0,113	 -21,964	 342,800	 
0,541	 -28,597	 -0,112	 -21,956	 342,900	 
0,540	 -28,588	 -0,113	 -21,950	 343,000	 
0,539	 -28,575	 -0,112	 -21,939	 343,100	 
0,538	 -28,565	 -0,113	 -21,935	 343,200	 
0,538	 -28,556	 -0,112	 -21,926	 343,300	 
0,537	 -28,545	 -0,113	 -21,919	 343,400	 
0,536	 -28,534	 -0,113	 -21,913	 343,500	 
0,535	 -28,526	 -0,112	 -21,904	 343,600	 
0,535	 -28,514	 -0,113	 -21,897	 343,700	 
0,535	 -28,506	 -0,113	 -21,890	 343,800	 
0,533	 -28,498	 -0,112	 -21,883	 343,900	 
0,532	 -28,489	 -0,113	 -21,874	 344,000	 
0,532	 -28,475	 -0,113	 -21,865	 344,100	 
0,532	 -28,466	 -0,112	 -21,857	 344,200	 
0,531	 -28,455	 -0,113	 -21,851	 344,300	 
0,530	 -28,443	 -0,112	 -21,841	 344,400	 
0,529	 -28,434	 -0,112	 -21,835	 344,500	 
0,528	 -28,427	 -0,113	 -21,828	 344,600	 
0,528	 -28,416	 -0,113	 -21,819	 344,700	 
0,527	 -28,406	 -0,113	 -21,813	 344,800	 
0,526	 -28,395	 -0,113	 -21,804	 344,900	 
0,525	 -28,386	 -0,113	 -21,798	 345,000	 
0,525	 -28,374	 -0,112	 -21,787	 345,100	 
0,524	 -28,364	 -0,113	 -21,780	 345,200	 
0,523	 -28,356	 -0,112	 -21,771	 345,300	 
0,522	 -28,345	 -0,113	 -21,766	 345,400	 
0,522	 -28,335	 -0,112	 -21,760	 345,500	 
0,521	 -28,326	 -0,113	 -21,750	 345,600	 
0,521	 -28,314	 -0,113	 -21,745	 345,700	 
0,519	 -28,306	 -0,113	 -21,734	 345,800	 
0,519	 -28,296	 -0,112	 -21,727	 345,900	 
0,518	 -28,287	 -0,113	 -21,721	 346,000	 
0,517	 -28,277	 -0,113	 -21,714	 346,100	 
0,516	 -28,265	 -0,113	 -21,707	 346,200	 
0,516	 -28,254	 -0,112	 -21,698	 346,300	 
0,515	 -28,244	 -0,112	 -21,691	 346,400	 
0,514	 -28,236	 -0,113	 -21,681	 346,500	 
0,513	 -28,226	 -0,113	 -21,675	 346,600	 
0,513	 -28,215	 -0,113	 -21,668	 346,700	 
0,512	 -28,206	 -0,112	 -21,661	 346,800	 
0,512	 -28,197	 -0,113	 -21,653	 346,900	 
0,510	 -28,187	 -0,113	 -21,648	 347,000	 
0,510	 -28,175	 -0,113	 -21,637	 347,100	 
0,509	 -28,164	 -0,113	 -21,629	 347,200	 
0,508	 -28,153	 -0,113	 -21,627	 347,300	 
0,508	 -28,143	 -0,113	 -21,615	 347,400	 
0,507	 -28,138	 -0,112	 -21,607	 347,500	 
0,507	 -28,125	 -0,113	 -21,600	 347,600	 
0,505	 -28,115	 -0,113	 -21,593	 347,700	 
0,505	 -28,107	 -0,113	 -21,585	 347,800	 
0,504	 -28,094	 -0,113	 -21,574	 347,900	 
0,504	 -28,088	 -0,112	 -21,570	 348,000	 
0,502	 -28,075	 -0,113	 -21,561	 348,100	 
0,502	 -28,065	 -0,113	 -21,555	 348,200	 
0,501	 -28,056	 -0,112	 -21,545	 348,300	 
0,500	 -28,044	 -0,112	 -21,538	 348,400	 
0,500	 -28,033	 -0,113	 -21,529	 348,500	 
0,499	 -28,024	 -0,112	 -21,522	 348,600	 
0,498	 -28,011	 -0,113	 -21,515	 348,700	 
0,497	 -28,004	 -0,112	 -21,506	 348,800	 
0,497	 -27,992	 -0,112	 -21,498	 348,900	 
0,496	 -27,985	 -0,113	 -21,492	 349,000	 
0,495	 -27,975	 -0,113	 -21,485	 349,100	 
0,494	 -27,964	 -0,113	 -21,479	 349,200	 
0,494	 -27,954	 -0,113	 -21,473	 349,300	 
0,493	 -27,945	 -0,112	 -21,459	 349,400	 
0,492	 -27,935	 -0,113	 -21,454	 349,500	 
0,491	 -27,924	 -0,113	 -21,445	 349,600	 
0,491	 -27,915	 -0,113	 -21,440	 349,700	 
0,490	 -27,904	 -0,113	 -21,432	 349,800	 
0,489	 -27,894	 -0,113	 -21,423	 349,900	 
0,488	 -27,881	 -0,113	 -21,416	 350,000	 
0,487	 -27,874	 -0,113	 -21,409	 350,100	 
0,487	 -27,867	 -0,113	 -21,403	 350,200	 
0,486	 -27,855	 -0,113	 -21,393	 350,300	 
0,485	 -27,846	 -0,113	 -21,388	 350,400	 
0,485	 -27,834	 -0,113	 -21,377	 350,500	 
0,484	 -27,826	 -0,112	 -21,371	 350,600	 
0,484	 -27,816	 -0,112	 -21,363	 350,700	 
0,483	 -27,805	 -0,113	 -21,355	 350,800	 
0,482	 -27,795	 -0,112	 -21,348	 350,900	 
0,482	 -27,787	 -0,113	 -21,341	 351,000	 
0,481	 -27,774	 -0,113	 -21,335	 351,100	 
0,481	 -27,764	 -0,112	 -21,322	 351,200	 
0,480	 -27,756	 -0,113	 -21,313	 351,300	 
0,479	 -27,745	 -0,113	 -21,308	 351,400	 
0,478	 -27,735	 -0,113	 -21,298	 351,500	 
0,477	 -27,723	 -0,113	 -21,291	 351,600	 
0,477	 -27,714	 -0,113	 -21,282	 351,700	 
0,476	 -27,703	 -0,112	 -21,275	 351,800	 
0,475	 -27,697	 -0,113	 -21,267	 351,900	 
0,475	 -27,685	 -0,112	 -21,261	 352,000	 
0,474	 -27,676	 -0,113	 -21,254	 352,100	 
0,473	 -27,666	 -0,113	 -21,245	 352,200	 
0,473	 -27,653	 -0,112	 -21,238	 352,300	 
0,472	 -27,645	 -0,113	 -21,228	 352,400	 
0,471	 -27,633	 -0,113	 -21,222	 352,500	 
0,470	 -27,625	 -0,113	 -21,216	 352,600	 
0,468	 -27,615	 -0,113	 -21,207	 352,700	 
0,468	 -27,606	 -0,113	 -21,200	 352,800	 
0,467	 -27,594	 -0,113	 -21,193	 352,900	 
0,467	 -27,584	 -0,112	 -21,182	 353,000	 
0,466	 -27,575	 -0,113	 -21,176	 353,100	 
0,465	 -27,565	 -0,112	 -21,171	 353,200	 
0,465	 -27,554	 -0,113	 -21,162	 353,300	 
0,464	 -27,545	 -0,113	 -21,154	 353,400	 
0,463	 -27,537	 -0,113	 -21,146	 353,500	 
0,463	 -27,528	 -0,113	 -21,138	 353,600	 
0,462	 -27,516	 -0,113	 -21,131	 353,700	 
0,461	 -27,506	 -0,113	 -21,125	 353,800	 
0,460	 -27,497	 -0,113	 -21,118	 353,900	 
0,459	 -27,485	 -0,113	 -21,106	 354,000	 
0,458	 -27,477	 -0,113	 -21,099	 354,100	 
0,458	 -27,466	 -0,113	 -21,092	 354,200	 
0,457	 -27,454	 -0,113	 -21,085	 354,300	 
0,456	 -27,445	 -0,113	 -21,074	 354,400	 
0,456	 -27,436	 -0,113	 -21,068	 354,500	 
0,454	 -27,424	 -0,113	 -21,058	 354,600	 
0,454	 -27,416	 -0,113	 -21,050	 354,700	 
0,453	 -27,405	 -0,113	 -21,044	 354,800	 
0,452	 -27,396	 -0,112	 -21,037	 354,900	 
0,452	 -27,387	 -0,113	 -21,030	 355,000	 
0,450	 -27,375	 -0,113	 -21,021	 355,100	 
0,449	 -27,365	 -0,113	 -21,011	 355,200	 
0,449	 -27,353	 -0,112	 -21,002	 355,300	 
0,448	 -27,346	 -0,112	 -20,998	 355,400	 
0,447	 -27,333	 -0,112	 -20,991	 355,500	 
0,446	 -27,325	 -0,112	 -20,984	 355,600	 
0,446	 -27,314	 -0,113	 -20,974	 355,700	 
0,445	 -27,306	 -0,113	 -20,968	 355,800	 
0,444	 -27,295	 -0,113	 -20,958	 355,900	 
0,443	 -27,288	 -0,113	 -20,951	 356,000	 
0,443	 -27,275	 -0,112	 -20,945	 356,100	 
0,442	 -27,265	 -0,113	 -20,937	 356,200	 
0,441	 -27,255	 -0,113	 -20,929	 356,300	 
0,441	 -27,247	 -0,112	 -20,923	 356,400	 
0,440	 -27,238	 -0,113	 -20,914	 356,500	 
0,439	 -27,224	 -0,113	 -20,906	 356,600	 
0,438	 -27,215	 -0,113	 -20,899	 356,700	 
0,437	 -27,203	 -0,112	 -20,887	 356,800	 
0,437	 -27,194	 -0,112	 -20,882	 356,900	 
0,437	 -27,186	 -0,113	 -20,878	 357,000	 
0,435	 -27,174	 -0,113	 -20,869	 357,100	 
0,434	 -27,169	 -0,113	 -20,860	 357,200	 
0,434	 -27,155	 -0,113	 -20,855	 357,300	 
0,433	 -27,145	 -0,113	 -20,844	 357,400	 
0,432	 -27,136	 -0,113	 -20,839	 357,500	 
0,432	 -27,123	 -0,113	 -20,833	 357,600	 
0,430	 -27,116	 -0,113	 -20,826	 357,700	 
0,430	 -27,106	 -0,113	 -20,817	 357,800	 
0,429	 -27,091	 -0,113	 -20,808	 357,900	 
0,429	 -27,083	 -0,113	 -20,800	 358,000	 
0,428	 -27,076	 -0,112	 -20,794	 358,100	 
0,427	 -27,063	 -0,113	 -20,785	 358,200	 
0,426	 -27,054	 -0,113	 -20,776	 358,300	 
0,426	 -27,045	 -0,113	 -20,771	 358,400	 
0,425	 -27,035	 -0,113	 -20,763	 358,500	 
0,424	 -27,026	 -0,112	 -20,757	 358,600	 
0,424	 -27,015	 -0,112	 -20,747	 358,700	 
0,423	 -27,007	 -0,112	 -20,739	 358,800	 
0,423	 -26,996	 -0,113	 -20,732	 358,900	 
0,421	 -26,985	 -0,113	 -20,725	 359,000	 
0,420	 -26,978	 -0,113	 -20,717	 359,100	 
0,419	 -26,964	 -0,113	 -20,708	 359,200	 
0,419	 -26,955	 -0,113	 -20,702	 359,300	 
0,419	 -26,947	 -0,113	 -20,691	 359,400	 
0,418	 -26,936	 -0,112	 -20,687	 359,500	 
0,418	 -26,925	 -0,113	 -20,679	 359,600	 
0,416	 -26,915	 -0,113	 -20,665	 359,700	 
0,415	 -26,904	 -0,113	 -20,659	 359,800	 
0,415	 -26,892	 -0,112	 -20,652	 359,900	 
0,414	 -26,886	 -0,112	 -20,643	 360,000	 
0,413	 -26,875	 -0,112	 -20,638	 360,100	 
0,412	 -26,865	 -0,113	 -20,632	 360,200	 
0,410	 -26,856	 -0,113	 -20,624	 360,300	 
0,410	 -26,842	 -0,113	 -20,615	 360,400	 
0,409	 -26,837	 -0,112	 -20,605	 360,500	 
0,409	 -26,824	 -0,112	 -20,599	 360,600	 
0,408	 -26,813	 -0,113	 -20,592	 360,700	 
0,407	 -26,805	 -0,112	 -20,585	 360,800	 
0,407	 -26,795	 -0,113	 -20,577	 360,900	 
0,406	 -26,781	 -0,112	 -20,568	 361,000	 
0,406	 -26,773	 -0,113	 -20,560	 361,100	 
0,405	 -26,766	 -0,112	 -20,553	 361,200	 
0,404	 -26,755	 -0,113	 -20,545	 361,300	 
0,403	 -26,744	 -0,113	 -20,538	 361,400	 
0,402	 -26,735	 -0,113	 -20,531	 361,500	 
0,399	 -26,725	 -0,113	 -20,525	 361,600	 
0,399	 -26,717	 -0,112	 -20,516	 361,700	 
0,398	 -26,705	 -0,113	 -20,507	 361,800	 
0,398	 -26,696	 -0,113	 -20,498	 361,900	 
0,397	 -26,685	 -0,113	 -20,493	 362,000	 
0,396	 -26,677	 -0,113	 -20,485	 362,100	 
0,396	 -26,667	 -0,112	 -20,478	 362,200	 
0,395	 -26,657	 -0,113	 -20,471	 362,300	 
0,395	 -26,644	 -0,113	 -20,462	 362,400	 
0,394	 -26,636	 -0,113	 -20,454	 362,500	 
0,393	 -26,627	 -0,112	 -20,445	 362,600	 
0,392	 -26,615	 -0,113	 -20,439	 362,700	 
0,391	 -26,606	 -0,113	 -20,433	 362,800	 
0,390	 -26,597	 -0,113	 -20,427	 362,900	 
0,390	 -26,584	 -0,113	 -20,416	 363,000	 
0,389	 -26,576	 -0,112	 -20,409	 363,100	 
0,388	 -26,567	 -0,113	 -20,401	 363,200	 
0,388	 -26,554	 -0,113	 -20,393	 363,300	 
0,387	 -26,546	 -0,113	 -20,384	 363,400	 
0,386	 -26,534	 -0,113	 -20,377	 363,500	 
0,385	 -26,528	 -0,113	 -20,369	 363,600	 
0,384	 -26,512	 -0,113	 -20,363	 363,700	 
0,384	 -26,505	 -0,112	 -20,355	 363,800	 
0,383	 -26,495	 -0,113	 -20,346	 363,900	 
0,383	 -26,487	 -0,113	 -20,340	 364,000	 
0,381	 -26,477	 -0,113	 -20,332	 364,100	 
0,380	 -26,466	 -0,113	 -20,325	 364,200	 
0,380	 -26,454	 -0,113	 -20,318	 364,300	 
0,379	 -26,442	 -0,113	 -20,310	 364,400	 
0,378	 -26,435	 -0,113	 -20,303	 364,500	 
0,378	 -26,424	 -0,113	 -20,292	 364,600	 
0,377	 -26,418	 -0,113	 -20,286	 364,700	 
0,376	 -26,402	 -0,113	 -20,279	 364,800	 
0,375	 -26,393	 -0,113	 -20,271	 364,900	 
0,374	 -26,385	 -0,113	 -20,263	 365,000	 
0,374	 -26,376	 -0,113	 -20,255	 365,100	 
0,373	 -26,364	 -0,113	 -20,246	 365,200	 
0,372	 -26,354	 -0,112	 -20,239	 365,300	 
0,371	 -26,342	 -0,113	 -20,234	 365,400	 
0,370	 -26,334	 -0,113	 -20,227	 365,500	 
0,369	 -26,325	 -0,113	 -20,219	 365,600	 
0,369	 -26,312	 -0,112	 -20,209	 365,700	 
0,368	 -26,305	 -0,113	 -20,202	 365,800	 
0,367	 -26,292	 -0,113	 -20,192	 365,900	 
0,366	 -26,281	 -0,112	 -20,187	 366,000	 
0,365	 -26,272	 -0,113	 -20,181	 366,100	 
0,364	 -26,264	 -0,113	 -20,174	 366,200	 
0,363	 -26,256	 -0,113	 -20,165	 366,300	 
0,363	 -26,244	 -0,112	 -20,157	 366,400	 
0,362	 -26,236	 -0,112	 -20,151	 366,500	 
0,362	 -26,226	 -0,112	 -20,142	 366,600	 
0,360	 -26,215	 -0,112	 -20,132	 366,700	 
0,360	 -26,203	 -0,113	 -20,128	 366,800	 
0,358	 -26,194	 -0,113	 -20,119	 366,900	 
0,358	 -26,185	 -0,113	 -20,112	 367,000	 
0,357	 -26,172	 -0,112	 -20,097	 367,100	 
0,357	 -26,164	 -0,113	 -20,090	 367,200	 
0,356	 -26,152	 -0,112	 -20,087	 367,300	 
0,355	 -26,144	 -0,113	 -20,077	 367,400	 
0,355	 -26,134	 -0,112	 -20,070	 367,500	 
0,353	 -26,122	 -0,112	 -20,061	 367,600	 
0,352	 -26,113	 -0,113	 -20,054	 367,700	 
0,352	 -26,103	 -0,112	 -20,047	 367,800	 
0,351	 -26,093	 -0,112	 -20,040	 367,900	 
0,350	 -26,082	 -0,113	 -20,031	 368,000	 
0,349	 -26,074	 -0,113	 -20,023	 368,100	 
0,348	 -26,064	 -0,112	 -20,013	 368,200	 
0,347	 -26,053	 -0,113	 -20,005	 368,300	 
0,346	 -26,046	 -0,112	 -19,999	 368,400	 
0,346	 -26,032	 -0,113	 -19,991	 368,500	 
0,345	 -26,021	 -0,112	 -19,980	 368,600	 
0,344	 -26,011	 -0,113	 -19,974	 368,700	 
0,344	 -26,003	 -0,112	 -19,968	 368,800	 
0,343	 -25,990	 -0,112	 -19,960	 368,900	 
0,342	 -25,982	 -0,112	 -19,952	 369,000	 
0,341	 -25,970	 -0,113	 -19,943	 369,100	 
0,340	 -25,963	 -0,113	 -19,936	 369,200	 
0,340	 -25,952	 -0,113	 -19,929	 369,300	 
0,339	 -25,942	 -0,113	 -19,921	 369,400	 
0,338	 -25,932	 -0,112	 -19,915	 369,500	 
0,337	 -25,924	 -0,113	 -19,907	 369,600	 
0,336	 -25,911	 -0,112	 -19,900	 369,700	 
0,335	 -25,906	 -0,113	 -19,891	 369,800	 
0,335	 -25,895	 -0,113	 -19,887	 369,900	 
0,333	 -25,883	 -0,113	 -19,877	 370,000	 
0,333	 -25,872	 -0,113	 -19,866	 370,100	 
0,332	 -25,863	 -0,113	 -19,860	 370,200	 
0,332	 -25,851	 -0,113	 -19,853	 370,300	 
0,331	 -25,841	 -0,112	 -19,846	 370,400	 
0,330	 -25,834	 -0,112	 -19,836	 370,500	 
0,330	 -25,823	 -0,112	 -19,828	 370,600	 
0,329	 -25,812	 -0,113	 -19,821	 370,700	 
0,328	 -25,804	 -0,113	 -19,813	 370,800	 
0,327	 -25,791	 -0,113	 -19,807	 370,900	 
0,326	 -25,781	 -0,113	 -19,798	 371,000	 
0,325	 -25,771	 -0,113	 -19,792	 371,100	 
0,325	 -25,764	 -0,113	 -19,784	 371,200	 
0,324	 -25,754	 -0,113	 -19,776	 371,300	 
0,323	 -25,745	 -0,113	 -19,772	 371,400	 
0,322	 -25,735	 -0,113	 -19,762	 371,500	 
0,321	 -25,726	 -0,112	 -19,755	 371,600	 
0,320	 -25,712	 -0,113	 -19,746	 371,700	 
0,319	 -25,704	 -0,113	 -19,736	 371,800	 
0,318	 -25,692	 -0,113	 -19,731	 371,900	 
0,318	 -25,683	 -0,112	 -19,722	 372,000	 
0,317	 -25,671	 -0,113	 -19,715	 372,100	 
0,316	 -25,660	 -0,112	 -19,707	 372,200	 
0,316	 -25,653	 -0,112	 -19,698	 372,300	 
0,314	 -25,642	 -0,113	 -19,694	 372,400	 
0,313	 -25,629	 -0,112	 -19,685	 372,500	 
0,312	 -25,622	 -0,112	 -19,676	 372,600	 
0,312	 -25,613	 -0,112	 -19,670	 372,700	 
0,311	 -25,606	 -0,112	 -19,664	 372,800	 
0,310	 -25,593	 -0,112	 -19,657	 372,900	 
0,309	 -25,583	 -0,113	 -19,649	 373,000	 
0,308	 -25,572	 -0,112	 -19,641	 373,100	 
0,307	 -25,560	 -0,113	 -19,632	 373,200	 
0,307	 -25,551	 -0,113	 -19,620	 373,300	 
0,306	 -25,544	 -0,113	 -19,614	 373,400	 
0,305	 -25,533	 -0,113	 -19,604	 373,500	 
0,304	 -25,522	 -0,113	 -19,600	 373,600	 
0,303	 -25,510	 -0,113	 -19,592	 373,700	 
0,302	 -25,501	 -0,113	 -19,584	 373,800	 
0,302	 -25,492	 -0,113	 -19,579	 373,900	 
0,301	 -25,485	 -0,113	 -19,571	 374,000	 
0,300	 -25,472	 -0,113	 -19,563	 374,100	 
0,299	 -25,462	 -0,112	 -19,554	 374,200	 
0,298	 -25,452	 -0,112	 -19,549	 374,300	 
0,298	 -25,442	 -0,113	 -19,543	 374,400	 
0,297	 -25,433	 -0,113	 -19,534	 374,500	 
0,296	 -25,424	 -0,113	 -19,527	 374,600	 
0,295	 -25,414	 -0,113	 -19,519	 374,700	 
0,295	 -25,402	 -0,113	 -19,512	 374,800	 
0,293	 -25,392	 -0,113	 -19,503	 374,900	 
0,293	 -25,380	 -0,112	 -19,494	 375,000	 
0,293	 -25,373	 -0,113	 -19,487	 375,100	 
0,291	 -25,362	 -0,112	 -19,481	 375,200	 
0,291	 -25,352	 -0,112	 -19,473	 375,300	 
0,290	 -25,343	 -0,113	 -19,464	 375,400	 
0,289	 -25,333	 -0,113	 -19,459	 375,500	 
0,289	 -25,319	 -0,113	 -19,450	 375,600	 
0,288	 -25,310	 -0,113	 -19,441	 375,700	 
0,287	 -25,304	 -0,113	 -19,433	 375,800	 
0,286	 -25,289	 -0,113	 -19,429	 375,900	 
0,286	 -25,282	 -0,113	 -19,418	 376,000	 
0,285	 -25,272	 -0,113	 -19,413	 376,100	 
0,284	 -25,263	 -0,113	 -19,405	 376,200	 
0,283	 -25,250	 -0,113	 -19,399	 376,300	 
0,282	 -25,244	 -0,113	 -19,391	 376,400	 
0,281	 -25,231	 -0,112	 -19,377	 376,500	 
0,281	 -25,222	 -0,113	 -19,370	 376,600	 
0,280	 -25,210	 -0,112	 -19,363	 376,700	 
0,279	 -25,201	 -0,113	 -19,351	 376,800	 
0,278	 -25,189	 -0,112	 -19,347	 376,900	 
0,277	 -25,181	 -0,113	 -19,340	 377,000	 
0,276	 -25,171	 -0,113	 -19,332	 377,100	 
0,275	 -25,162	 -0,113	 -19,324	 377,200	 
0,275	 -25,150	 -0,113	 -19,317	 377,300	 
0,274	 -25,144	 -0,112	 -19,310	 377,400	 
0,273	 -25,130	 -0,112	 -19,300	 377,500	 
0,272	 -25,121	 -0,113	 -19,292	 377,600	 
0,271	 -25,111	 -0,112	 -19,286	 377,700	 
0,270	 -25,100	 -0,112	 -19,278	 377,800	 
0,269	 -25,093	 -0,113	 -19,271	 377,900	 
0,269	 -25,082	 -0,113	 -19,264	 378,000	 
0,268	 -25,071	 -0,113	 -19,258	 378,100	 
0,267	 -25,061	 -0,112	 -19,249	 378,200	 
0,266	 -25,050	 -0,113	 -19,240	 378,300	 
0,265	 -25,039	 -0,113	 -19,233	 378,400	 
0,264	 -25,031	 -0,112	 -19,223	 378,500	 
0,264	 -25,021	 -0,113	 -19,218	 378,600	 
0,263	 -25,011	 -0,112	 -19,211	 378,700	 
0,262	 -25,002	 -0,112	 -19,203	 378,800	 
0,261	 -24,991	 -0,112	 -19,195	 378,900	 
0,260	 -24,983	 -0,112	 -19,186	 379,000	 
0,260	 -24,972	 -0,112	 -19,181	 379,100	 
0,259	 -24,961	 -0,113	 -19,171	 379,200	 
0,258	 -24,951	 -0,112	 -19,165	 379,300	 
0,257	 -24,940	 -0,113	 -19,159	 379,400	 
0,256	 -24,931	 -0,112	 -19,149	 379,500	 
0,255	 -24,921	 -0,112	 -19,142	 379,600	 
0,254	 -24,912	 -0,113	 -19,135	 379,700	 
0,254	 -24,901	 -0,113	 -19,125	 379,800	 
0,253	 -24,889	 -0,112	 -19,115	 379,900	 
0,252	 -24,883	 -0,112	 -19,107	 380,000	 
0,251	 -24,869	 -0,113	 -19,098	 380,100	 
0,251	 -24,861	 -0,113	 -19,091	 380,200	 
0,250	 -24,850	 -0,113	 -19,085	 380,300	 
0,249	 -24,841	 -0,113	 -19,076	 380,400	 
0,248	 -24,834	 -0,113	 -19,068	 380,500	 
0,247	 -24,820	 -0,113	 -19,061	 380,600	 
0,246	 -24,811	 -0,112	 -19,054	 380,700	 
0,246	 -24,799	 -0,112	 -19,045	 380,800	 
0,245	 -24,790	 -0,112	 -19,041	 380,900	 
0,244	 -24,780	 -0,113	 -19,028	 381,000	 
0,242	 -24,770	 -0,112	 -19,024	 381,100	 
0,241	 -24,763	 -0,113	 -19,015	 381,200	 
0,240	 -24,754	 -0,113	 -19,010	 381,300	 
0,239	 -24,743	 -0,113	 -19,002	 381,400	 
0,238	 -24,732	 -0,112	 -18,994	 381,500	 
0,238	 -24,723	 -0,113	 -18,984	 381,600	 
0,237	 -24,713	 -0,112	 -18,976	 381,700	 
0,236	 -24,702	 -0,112	 -18,969	 381,800	 
0,235	 -24,692	 -0,112	 -18,964	 381,900	 
0,235	 -24,682	 -0,113	 -18,955	 382,000	 
0,234	 -24,670	 -0,113	 -18,946	 382,100	 
0,233	 -24,662	 -0,113	 -18,942	 382,200	 
0,232	 -24,653	 -0,113	 -18,936	 382,300	 
0,231	 -24,641	 -0,112	 -18,924	 382,400	 
0,231	 -24,633	 -0,112	 -18,916	 382,500	 
0,230	 -24,621	 -0,113	 -18,911	 382,600	 
0,229	 -24,611	 -0,112	 -18,902	 382,700	 
0,228	 -24,604	 -0,112	 -18,894	 382,800	 
0,227	 -24,591	 -0,113	 -18,888	 382,900	 
0,227	 -24,585	 -0,113	 -18,879	 383,000	 
0,226	 -24,571	 -0,113	 -18,872	 383,100	 
0,225	 -24,563	 -0,112	 -18,863	 383,200	 
0,224	 -24,554	 -0,112	 -18,856	 383,300	 
0,223	 -24,541	 -0,112	 -18,847	 383,400	 
0,223	 -24,533	 -0,113	 -18,839	 383,500	 
0,222	 -24,524	 -0,112	 -18,830	 383,600	 
0,221	 -24,511	 -0,113	 -18,825	 383,700	 
0,221	 -24,499	 -0,112	 -18,818	 383,800	 
0,219	 -24,491	 -0,113	 -18,810	 383,900	 
0,219	 -24,480	 -0,113	 -18,802	 384,000	 
0,218	 -24,473	 -0,113	 -18,793	 384,100	 
0,217	 -24,461	 -0,113	 -18,787	 384,200	 
0,216	 -24,451	 -0,113	 -18,780	 384,300	 
0,215	 -24,440	 -0,113	 -18,771	 384,400	 
0,214	 -24,433	 -0,113	 -18,767	 384,500	 
0,214	 -24,421	 -0,113	 -18,757	 384,600	 
0,213	 -24,412	 -0,113	 -18,749	 384,700	 
0,212	 -24,405	 -0,113	 -18,745	 384,800	 
0,211	 -24,391	 -0,113	 -18,736	 384,900	 
0,210	 -24,381	 -0,112	 -18,728	 385,000	 
0,209	 -24,369	 -0,113	 -18,721	 385,100	 
0,208	 -24,362	 -0,113	 -18,708	 385,200	 
0,208	 -24,353	 -0,113	 -18,701	 385,300	 
0,207	 -24,341	 -0,112	 -18,693	 385,400	 
0,206	 -24,332	 -0,112	 -18,686	 385,500	 
0,205	 -24,321	 -0,112	 -18,676	 385,600	 
0,204	 -24,310	 -0,113	 -18,671	 385,700	 
0,204	 -24,299	 -0,113	 -18,662	 385,800	 
0,203	 -24,291	 -0,113	 -18,655	 385,900	 
0,202	 -24,277	 -0,113	 -18,646	 386,000	 
0,201	 -24,269	 -0,112	 -18,638	 386,100	 
0,200	 -24,263	 -0,113	 -18,631	 386,200	 
0,200	 -24,251	 -0,112	 -18,623	 386,300	 
0,199	 -24,242	 -0,112	 -18,616	 386,400	 
0,197	 -24,232	 -0,113	 -18,610	 386,500	 
0,197	 -24,222	 -0,113	 -18,600	 386,600	 
0,196	 -24,212	 -0,113	 -18,594	 386,700	 
0,195	 -24,203	 -0,113	 -18,582	 386,800	 
0,194	 -24,191	 -0,113	 -18,574	 386,900	 
0,194	 -24,180	 -0,113	 -18,571	 387,000	 
0,194	 -24,173	 -0,112	 -18,563	 387,100	 
0,193	 -24,162	 -0,112	 -18,557	 387,200	 
0,192	 -24,155	 -0,112	 -18,548	 387,300	 
0,191	 -24,138	 -0,113	 -18,541	 387,400	 
0,190	 -24,131	 -0,113	 -18,533	 387,500	 
0,189	 -24,121	 -0,113	 -18,525	 387,600	 
0,188	 -24,112	 -0,112	 -18,516	 387,700	 
0,188	 -24,105	 -0,113	 -18,510	 387,800	 
0,187	 -24,090	 -0,113	 -18,504	 387,900	 
0,186	 -24,080	 -0,113	 -18,495	 388,000	 
0,185	 -24,076	 -0,113	 -18,489	 388,100	 
0,184	 -24,063	 -0,113	 -18,481	 388,200	 
0,183	 -24,052	 -0,113	 -18,473	 388,300	 
0,183	 -24,044	 -0,112	 -18,466	 388,400	 
0,182	 -24,031	 -0,113	 -18,458	 388,500	 
0,181	 -24,020	 -0,113	 -18,449	 388,600	 
0,180	 -24,010	 -0,113	 -18,442	 388,700	 
0,180	 -24,001	 -0,113	 -18,434	 388,800	 
0,179	 -23,989	 -0,113	 -18,425	 388,900	 
0,178	 -23,979	 -0,113	 -18,419	 389,000	 
0,177	 -23,969	 -0,113	 -18,412	 389,100	 
0,177	 -23,961	 -0,112	 -18,401	 389,200	 
0,176	 -23,953	 -0,112	 -18,397	 389,300	 
0,175	 -23,945	 -0,112	 -18,388	 389,400	 
0,174	 -23,932	 -0,112	 -18,381	 389,500	 
0,173	 -23,921	 -0,112	 -18,372	 389,600	 
0,172	 -23,911	 -0,113	 -18,364	 389,700	 
0,172	 -23,902	 -0,112	 -18,355	 389,800	 
0,171	 -23,892	 -0,112	 -18,351	 389,900	 
0,170	 -23,883	 -0,113	 -18,342	 390,000	 
0,169	 -23,872	 -0,113	 -18,335	 390,100	 
0,168	 -23,860	 -0,113	 -18,329	 390,200	 
0,167	 -23,854	 -0,113	 -18,320	 390,300	 
0,166	 -23,840	 -0,113	 -18,314	 390,400	 
0,166	 -23,833	 -0,113	 -18,304	 390,500	 
0,165	 -23,819	 -0,112	 -18,296	 390,600	 
0,164	 -23,811	 -0,112	 -18,287	 390,700	 
0,163	 -23,800	 -0,113	 -18,280	 390,800	 
0,162	 -23,790	 -0,113	 -18,272	 390,900	 
0,162	 -23,779	 -0,113	 -18,266	 391,000	 
0,161	 -23,770	 -0,112	 -18,256	 391,100	 
0,160	 -23,762	 -0,112	 -18,252	 391,200	 
0,160	 -23,747	 -0,113	 -18,243	 391,300	 
0,159	 -23,740	 -0,112	 -18,236	 391,400	 
0,158	 -23,732	 -0,112	 -18,228	 391,500	 
0,157	 -23,718	 -0,112	 -18,222	 391,600	 
0,156	 -23,711	 -0,112	 -18,212	 391,700	 
0,155	 -23,700	 -0,113	 -18,204	 391,800	 
0,155	 -23,689	 -0,113	 -18,198	 391,900	 
0,154	 -23,680	 -0,113	 -18,189	 392,000	 
0,154	 -23,673	 -0,112	 -18,182	 392,100	 
0,153	 -23,656	 -0,113	 -18,175	 392,200	 
0,152	 -23,650	 -0,113	 -18,168	 392,300	 
0,151	 -23,640	 -0,112	 -18,162	 392,400	 
0,150	 -23,630	 -0,113	 -18,153	 392,500	 
0,149	 -23,622	 -0,113	 -18,142	 392,600	 
0,148	 -23,610	 -0,113	 -18,132	 392,700	 
0,148	 -23,596	 -0,113	 -18,125	 392,800	 
0,147	 -23,588	 -0,112	 -18,119	 392,900	 
0,146	 -23,579	 -0,113	 -18,109	 393,000	 
0,145	 -23,569	 -0,112	 -18,101	 393,100	 
0,145	 -23,561	 -0,113	 -18,094	 393,200	 
0,144	 -23,552	 -0,112	 -18,088	 393,300	 
0,143	 -23,539	 -0,113	 -18,080	 393,400	 
0,142	 -23,530	 -0,113	 -18,072	 393,500	 
0,141	 -23,523	 -0,113	 -18,066	 393,600	 
0,140	 -23,511	 -0,112	 -18,054	 393,700	 
0,139	 -23,502	 -0,113	 -18,045	 393,800	 
0,139	 -23,490	 -0,113	 -18,034	 393,900	 
0,138	 -23,483	 -0,112	 -18,029	 394,000	 
0,138	 -23,473	 -0,112	 -18,022	 394,100	 
0,136	 -23,459	 -0,112	 -18,015	 394,200	 
0,136	 -23,452	 -0,113	 -18,007	 394,300	 
0,135	 -23,439	 -0,113	 -18,001	 394,400	 
0,134	 -23,430	 -0,113	 -17,993	 394,500	 
0,133	 -23,421	 -0,113	 -17,987	 394,600	 
0,133	 -23,410	 -0,112	 -17,978	 394,700	 
0,132	 -23,401	 -0,112	 -17,971	 394,800	 
0,131	 -23,389	 -0,113	 -17,963	 394,900	 
0,131	 -23,380	 -0,113	 -17,952	 395,000	 
0,130	 -23,373	 -0,113	 -17,947	 395,100	 
0,129	 -23,358	 -0,112	 -17,937	 395,200	 
0,128	 -23,350	 -0,113	 -17,928	 395,300	 
0,128	 -23,339	 -0,112	 -17,922	 395,400	 
0,127	 -23,327	 -0,112	 -17,917	 395,500	 
0,126	 -23,318	 -0,112	 -17,910	 395,600	 
0,125	 -23,310	 -0,113	 -17,899	 395,700	 
0,125	 -23,299	 -0,113	 -17,895	 395,800	 
0,124	 -23,289	 -0,113	 -17,888	 395,900	 
0,123	 -23,281	 -0,113	 -17,878	 396,000	 
0,122	 -23,272	 -0,113	 -17,871	 396,100	 
0,121	 -23,260	 -0,113	 -17,861	 396,200	 
0,121	 -23,250	 -0,113	 -17,854	 396,300	 
0,120	 -23,239	 -0,113	 -17,849	 396,400	 
0,119	 -23,230	 -0,112	 -17,840	 396,500	 
0,119	 -23,221	 -0,113	 -17,831	 396,600	 
0,118	 -23,210	 -0,113	 -17,826	 396,700	 
0,117	 -23,201	 -0,113	 -17,819	 396,800	 
0,116	 -23,189	 -0,113	 -17,811	 396,900	 
0,116	 -23,182	 -0,113	 -17,803	 397,000	 
0,115	 -23,172	 -0,113	 -17,794	 397,100	 
0,114	 -23,163	 -0,113	 -17,788	 397,200	 
0,113	 -23,151	 -0,113	 -17,780	 397,300	 
0,112	 -23,139	 -0,112	 -17,774	 397,400	 
0,112	 -23,131	 -0,112	 -17,766	 397,500	 
0,111	 -23,119	 -0,113	 -17,757	 397,600	 
0,110	 -23,110	 -0,112	 -17,751	 397,700	 
0,109	 -23,101	 -0,113	 -17,744	 397,800	 
0,109	 -23,088	 -0,113	 -17,735	 397,900	 
0,108	 -23,080	 -0,113	 -17,726	 398,000	 
0,107	 -23,072	 -0,112	 -17,720	 398,100	 
0,107	 -23,060	 -0,113	 -17,712	 398,200	 
0,106	 -23,050	 -0,113	 -17,704	 398,300	 
0,105	 -23,040	 -0,113	 -17,697	 398,400	 
0,105	 -23,031	 -0,112	 -17,688	 398,500	 
0,104	 -23,020	 -0,113	 -17,680	 398,600	 
0,103	 -23,009	 -0,112	 -17,675	 398,700	 
0,103	 -23,000	 -0,113	 -17,666	 398,800	 
0,102	 -22,991	 -0,113	 -17,658	 398,900	 
0,101	 -22,980	 -0,113	 -17,649	 399,000	 
0,101	 -22,972	 -0,112	 -17,641	 399,100	 
0,100	 -22,959	 -0,112	 -17,637	 399,200	 
0,099	 -22,949	 -0,113	 -17,628	 399,300	 
0,098	 -22,938	 -0,113	 -17,622	 399,400	 
0,098	 -22,927	 -0,113	 -17,613	 399,500	 
0,097	 -22,920	 -0,113	 -17,603	 399,600	 
0,096	 -22,910	 -0,113	 -17,595	 399,700	 
0,095	 -22,902	 -0,113	 -17,588	 399,800	 
0,095	 -22,888	 -0,113	 -17,580	 399,900	 
0,094	 -22,879	 -0,112	 -17,573	 400,000	 
0,094	 -22,866	 -0,112	 -17,566	 400,100	 
0,093	 -22,859	 -0,113	 -17,557	 400,200	 
0,092	 -22,848	 -0,113	 -17,553	 400,300	 
0,091	 -22,839	 -0,112	 -17,544	 400,400	 
0,091	 -22,830	 -0,113	 -17,537	 400,500	 
0,090	 -22,822	 -0,113	 -17,529	 400,600	 
0,089	 -22,807	 -0,112	 -17,520	 400,700	 
0,089	 -22,799	 -0,113	 -17,511	 400,800	 
0,088	 -22,788	 -0,113	 -17,506	 400,900	 
0,087	 -22,780	 -0,113	 -17,499	 401,000	 
0,087	 -22,770	 -0,113	 -17,489	 401,100	 
0,086	 -22,759	 -0,112	 -17,481	 401,200	 
0,086	 -22,747	 -0,112	 -17,476	 401,300	 
0,085	 -22,743	 -0,113	 -17,468	 401,400	 
0,084	 -22,730	 -0,113	 -17,461	 401,500	 
0,083	 -22,721	 -0,113	 -17,453	 401,600	 
0,083	 -22,712	 -0,113	 -17,445	 401,700	 
0,082	 -22,698	 -0,113	 -17,436	 401,800	 
0,081	 -22,691	 -0,113	 -17,429	 401,900	 
0,081	 -22,677	 -0,112	 -17,421	 402,000	 
0,080	 -22,666	 -0,113	 -17,415	 402,100	 
0,079	 -22,658	 -0,112	 -17,402	 402,200	 
0,079	 -22,650	 -0,113	 -17,394	 402,300	 
0,078	 -22,637	 -0,113	 -17,388	 402,400	 
0,077	 -22,628	 -0,113	 -17,378	 402,500	 
0,077	 -22,618	 -0,112	 -17,369	 402,600	 
0,076	 -22,609	 -0,113	 -17,364	 402,700	 
0,075	 -22,601	 -0,112	 -17,357	 402,800	 
0,074	 -22,590	 -0,113	 -17,351	 402,900	 
0,074	 -22,580	 -0,113	 -17,342	 403,000	 
0,074	 -22,569	 -0,112	 -17,336	 403,100	 
0,073	 -22,558	 -0,113	 -17,327	 403,200	 
0,072	 -22,551	 -0,112	 -17,318	 403,300	 
0,072	 -22,536	 -0,113	 -17,311	 403,400	 
0,071	 -22,528	 -0,113	 -17,303	 403,500	 
0,070	 -22,521	 -0,113	 -17,297	 403,600	 
0,070	 -22,514	 -0,113	 -17,287	 403,700	 
0,069	 -22,501	 -0,113	 -17,282	 403,800	 
0,068	 -22,489	 -0,113	 -17,273	 403,900	 
0,068	 -22,478	 -0,113	 -17,267	 404,000	 
0,067	 -22,471	 -0,113	 -17,260	 404,100	 
0,066	 -22,458	 -0,113	 -17,248	 404,200	 
0,066	 -22,448	 -0,113	 -17,240	 404,300	 
0,065	 -22,437	 -0,112	 -17,235	 404,400	 
0,064	 -22,430	 -0,112	 -17,229	 404,500	 
0,064	 -22,419	 -0,113	 -17,216	 404,600	 
0,063	 -22,409	 -0,113	 -17,210	 404,700	 
0,063	 -22,400	 -0,113	 -17,208	 404,800	 
0,062	 -22,390	 -0,113	 -17,197	 404,900	 
0,062	 -22,378	 -0,113	 -17,191	 405,000	 
0,061	 -22,369	 -0,113	 -17,183	 405,100	 
0,060	 -22,358	 -0,113	 -17,173	 405,200	 
0,059	 -22,351	 -0,112	 -17,162	 405,300	 
0,059	 -22,338	 -0,112	 -17,155	 405,400	 
0,058	 -22,329	 -0,113	 -17,149	 405,500	 
0,058	 -22,320	 -0,112	 -17,139	 405,600	 
0,057	 -22,309	 -0,113	 -17,133	 405,700	 
0,057	 -22,299	 -0,112	 -17,127	 405,800	 
0,056	 -22,290	 -0,113	 -17,117	 405,900	 
0,056	 -22,279	 -0,113	 -17,110	 406,000	 
0,055	 -22,270	 -0,113	 -17,104	 406,100	 
0,054	 -22,258	 -0,113	 -17,095	 406,200	 
0,054	 -22,251	 -0,112	 -17,088	 406,300	 
0,053	 -22,242	 -0,113	 -17,081	 406,400	 
0,052	 -22,233	 -0,113	 -17,072	 406,500	 
0,052	 -22,218	 -0,112	 -17,066	 406,600	 
0,051	 -22,209	 -0,112	 -17,057	 406,700	 
0,051	 -22,199	 -0,113	 -17,049	 406,800	 
0,050	 -22,188	 -0,113	 -17,042	 406,900	 
0,050	 -22,179	 -0,113	 -17,035	 407,000	 
0,049	 -22,170	 -0,113	 -17,028	 407,100	 
0,049	 -22,157	 -0,113	 -17,018	 407,200	 
0,048	 -22,150	 -0,113	 -17,011	 407,300	 
0,048	 -22,136	 -0,112	 -17,005	 407,400	 
0,047	 -22,127	 -0,112	 -16,996	 407,500	 
0,046	 -22,120	 -0,113	 -16,990	 407,600	 
0,046	 -22,107	 -0,113	 -16,981	 407,700	 
0,045	 -22,100	 -0,112	 -16,975	 407,800	 
0,045	 -22,090	 -0,113	 -16,968	 407,900	 
0,044	 -22,077	 -0,112	 -16,956	 408,000	 
0,044	 -22,068	 -0,112	 -16,950	 408,100	 
0,043	 -22,058	 -0,113	 -16,944	 408,200	 
0,043	 -22,048	 -0,113	 -16,936	 408,300	 
0,042	 -22,039	 -0,113	 -16,927	 408,400	 
0,042	 -22,029	 -0,113	 -16,921	 408,500	 
0,041	 -22,020	 -0,113	 -16,913	 408,600	 
0,041	 -22,013	 -0,113	 -16,906	 408,700	 
0,040	 -22,001	 -0,113	 -16,897	 408,800	 
0,040	 -21,987	 -0,113	 -16,890	 408,900	 
0,039	 -21,979	 -0,113	 -16,882	 409,000	 
0,039	 -21,970	 -0,113	 -16,876	 409,100	 
0,038	 -21,958	 -0,113	 -16,863	 409,200	 
0,038	 -21,950	 -0,113	 -16,856	 409,300	 
0,037	 -21,937	 -0,113	 -16,849	 409,400	 
0,037	 -21,927	 -0,112	 -16,841	 409,500	 
0,036	 -21,921	 -0,113	 -16,835	 409,600	 
0,036	 -21,907	 -0,113	 -16,827	 409,700	 
0,036	 -21,899	 -0,113	 -16,820	 409,800	 
0,035	 -21,891	 -0,112	 -16,812	 409,900	 
0,035	 -21,878	 -0,112	 -16,805	 410,000	 
0,034	 -21,871	 -0,113	 -16,799	 410,100	 
0,033	 -21,857	 -0,112	 -16,790	 410,200	 
0,033	 -21,850	 -0,113	 -16,782	 410,300	 
0,032	 -21,841	 -0,113	 -16,775	 410,400	 
0,032	 -21,828	 -0,113	 -16,767	 410,500	 
0,031	 -21,818	 -0,113	 -16,762	 410,600	 
0,031	 -21,809	 -0,113	 -16,751	 410,700	 
0,030	 -21,800	 -0,112	 -16,742	 410,800	 
0,030	 -21,787	 -0,112	 -16,732	 410,900	 
0,030	 -21,784	 -0,112	 -16,727	 411,000	 
0,030	 -21,769	 -0,113	 -16,719	 411,100	 
0,029	 -21,759	 -0,113	 -16,709	 411,200	 
0,028	 -21,750	 -0,113	 -16,704	 411,300	 
0,028	 -21,741	 -0,113	 -16,696	 411,400	 
0,027	 -21,729	 -0,113	 -16,690	 411,500	 
0,027	 -21,721	 -0,112	 -16,678	 411,600	 
0,027	 -21,707	 -0,113	 -16,670	 411,700	 
0,026	 -21,698	 -0,113	 -16,664	 411,800	 
0,026	 -21,691	 -0,113	 -16,657	 411,900	 
0,026	 -21,678	 -0,113	 -16,648	 412,000	 
0,025	 -21,667	 -0,112	 -16,640	 412,100	 
0,024	 -21,657	 -0,112	 -16,631	 412,200	 
0,024	 -21,647	 -0,113	 -16,627	 412,300	 
0,024	 -21,640	 -0,113	 -16,618	 412,400	 
0,023	 -21,628	 -0,113	 -16,611	 412,500	 
0,023	 -21,617	 -0,113	 -16,604	 412,600	 
0,023	 -21,612	 -0,112	 -16,596	 412,700	 
0,022	 -21,597	 -0,112	 -16,588	 412,800	 
0,022	 -21,590	 -0,113	 -16,583	 412,900	 
0,022	 -21,578	 -0,113	 -16,573	 413,000	 
0,021	 -21,569	 -0,112	 -16,566	 413,100	 
0,021	 -21,558	 -0,112	 -16,556	 413,200	 
0,020	 -21,551	 -0,113	 -16,550	 413,300	 
0,020	 -21,540	 -0,112	 -16,543	 413,400	 
0,020	 -21,528	 -0,113	 -16,534	 413,500	 
0,019	 -21,520	 -0,113	 -16,528	 413,600	 
0,019	 -21,509	 -0,113	 -16,519	 413,700	 
0,019	 -21,501	 -0,113	 -16,516	 413,800	 
0,018	 -21,488	 -0,113	 -16,506	 413,900	 
0,018	 -21,478	 -0,113	 -16,497	 414,000	 
0,018	 -21,469	 -0,113	 -16,491	 414,100	 
0,017	 -21,460	 -0,113	 -16,482	 414,200	 
0,017	 -21,449	 -0,113	 -16,473	 414,300	 
0,017	 -21,437	 -0,113	 -16,464	 414,400	 
0,016	 -21,431	 -0,113	 -16,460	 414,500	 
0,016	 -21,417	 -0,113	 -16,449	 414,600	 
0,016	 -21,406	 -0,113	 -16,444	 414,700	 
0,015	 -21,399	 -0,112	 -16,438	 414,800	 
0,015	 -21,392	 -0,112	 -16,429	 414,900	 
0,015	 -21,383	 -0,112	 -16,422	 415,000	 
0,015	 -21,367	 -0,112	 -16,415	 415,100	 
0,014	 -21,359	 -0,112	 -16,407	 415,200	 
0,014	 -21,352	 -0,112	 -16,399	 415,300	 
0,014	 -21,338	 -0,112	 -16,390	 415,400	 
0,013	 -21,330	 -0,113	 -16,382	 415,500	 
0,013	 -21,318	 -0,113	 -16,376	 415,600	 
0,013	 -21,307	 -0,112	 -16,367	 415,700	 
0,012	 -21,299	 -0,113	 -16,361	 415,800	 
0,012	 -21,288	 -0,112	 -16,353	 415,900	 
0,012	 -21,279	 -0,112	 -16,346	 416,000	 
0,012	 -21,270	 -0,113	 -16,339	 416,100	 
0,011	 -21,257	 -0,113	 -16,330	 416,200	 
0,011	 -21,249	 -0,113	 -16,324	 416,300	 
0,011	 -21,238	 -0,112	 -16,316	 416,400	 
0,011	 -21,231	 -0,113	 -16,309	 416,500	 
0,010	 -21,217	 -0,113	 -16,302	 416,600	 
0,010	 -21,211	 -0,113	 -16,293	 416,700	 
0,010	 -21,198	 -0,113	 -16,285	 416,800	 
0,010	 -21,188	 -0,112	 -16,276	 416,900	 
0,009	 -21,181	 -0,112	 -16,269	 417,000	 
0,009	 -21,170	 -0,113	 -16,262	 417,100	 
0,009	 -21,156	 -0,112	 -16,254	 417,200	 
0,009	 -21,145	 -0,112	 -16,246	 417,300	 
0,009	 -21,139	 -0,112	 -16,239	 417,400	 
0,008	 -21,127	 -0,112	 -16,228	 417,500	 
0,008	 -21,118	 -0,112	 -16,223	 417,600	 
0,008	 -21,111	 -0,112	 -16,215	 417,700	 
0,008	 -21,098	 -0,112	 -16,207	 417,800	 
0,008	 -21,090	 -0,112	 -16,201	 417,900	 
0,007	 -21,077	 -0,113	 -16,190	 418,000	 
0,007	 -21,070	 -0,113	 -16,181	 418,100	 
0,007	 -21,062	 -0,112	 -16,174	 418,200	 
0,007	 -21,049	 -0,113	 -16,166	 418,300	 
0,007	 -21,042	 -0,112	 -16,160	 418,400	 
0,007	 -21,027	 -0,113	 -16,152	 418,500	 
0,007	 -21,019	 -0,113	 -16,144	 418,600	 
0,007	 -21,010	 -0,113	 -16,135	 418,700	 
0,007	 -20,999	 -0,113	 -16,129	 418,800	 
0,007	 -20,990	 -0,112	 -16,119	 418,900	 
0,007	 -20,980	 -0,113	 -16,111	 419,000	 
0,007	 -20,969	 -0,113	 -16,105	 419,100	 
0,007	 -20,959	 -0,113	 -16,093	 419,200	 
0,007	 -20,950	 -0,113	 -16,085	 419,300	 
0,007	 -20,941	 -0,113	 -16,081	 419,400	 
0,007	 -20,930	 -0,113	 -16,073	 419,500	 
0,007	 -20,920	 -0,113	 -16,065	 419,600	 
0,007	 -20,912	 -0,113	 -16,058	 419,700	 
0,007	 -20,898	 -0,113	 -16,044	 419,800	 
0,007	 -20,891	 -0,113	 -16,038	 419,900	 
0,007	 -20,877	 -0,113	 -16,029	 420,000	 
0,007	 -20,870	 -0,113	 -16,025	 420,100	 
0,007	 -20,860	 -0,113	 -16,016	 420,200	 
0,007	 -20,848	 -0,112	 -16,006	 420,300	 
0,007	 -20,840	 -0,113	 -16,000	 420,400	 
0,007	 -20,826	 -0,113	 -15,995	 420,500	 
0,007	 -20,822	 -0,113	 -15,988	 420,600	 
0,007	 -20,810	 -0,113	 -15,980	 420,700	 
0,007	 -20,798	 -0,113	 -15,973	 420,800	 
0,007	 -20,789	 -0,113	 -15,965	 420,900	 
0,007	 -20,781	 -0,112	 -15,956	 421,000	 
0,007	 -20,769	 -0,113	 -15,948	 421,100	 
0,007	 -20,762	 -0,112	 -15,940	 421,200	 
0,007	 -20,747	 -0,113	 -15,934	 421,300	 
0,007	 -20,738	 -0,112	 -15,925	 421,400	 
0,007	 -20,730	 -0,113	 -15,918	 421,500	 
0,007	 -20,719	 -0,113	 -15,912	 421,600	 
0,007	 -20,712	 -0,112	 -15,904	 421,700	 
0,007	 -20,701	 -0,112	 -15,896	 421,800	 
0,007	 -20,690	 -0,112	 -15,888	 421,900	 
0,006	 -20,679	 -0,113	 -15,881	 422,000	 
0,007	 -20,670	 -0,113	 -15,873	 422,100	 
0,007	 -20,659	 -0,112	 -15,868	 422,200	 
0,007	 -20,651	 -0,113	 -15,861	 422,300	 
0,006	 -20,639	 -0,112	 -15,851	 422,400	 
0,006	 -20,629	 -0,113	 -15,842	 422,500	 
0,007	 -20,619	 -0,112	 -15,838	 422,600	 
0,006	 -20,611	 -0,113	 -15,827	 422,700	 
0,006	 -20,602	 -0,113	 -15,822	 422,800	 
0,007	 -20,591	 -0,113	 -15,815	 422,900	 
0,007	 -20,583	 -0,113	 -15,808	 423,000	 
0,007	 -20,568	 -0,113	 -15,800	 423,100	 
0,007	 -20,557	 -0,112	 -15,789	 423,200	 
0,007	 -20,547	 -0,113	 -15,782	 423,300	 
0,007	 -20,538	 -0,112	 -15,773	 423,400	 
0,007	 -20,533	 -0,113	 -15,765	 423,500	 
0,007	 -20,518	 -0,113	 -15,760	 423,600	 
0,007	 -20,511	 -0,113	 -15,752	 423,700	 
0,007	 -20,496	 -0,113	 -15,743	 423,800	 
0,007	 -20,490	 -0,113	 -15,736	 423,900	 
0,007	 -20,481	 -0,112	 -15,728	 424,000	 
0,007	 -20,471	 -0,113	 -15,722	 424,100	 
0,007	 -20,459	 -0,113	 -15,715	 424,200	 
0,007	 -20,452	 -0,113	 -15,706	 424,300	 
0,007	 -20,443	 -0,112	 -15,698	 424,400	 
0,007	 -20,430	 -0,112	 -15,690	 424,500	 
0,007	 -20,422	 -0,113	 -15,681	 424,600	 
0,007	 -20,408	 -0,113	 -15,674	 424,700	 
0,007	 -20,399	 -0,112	 -15,667	 424,800	 
0,007	 -20,390	 -0,113	 -15,656	 424,900	 
0,007	 -20,379	 -0,112	 -15,652	 425,000	 
0,007	 -20,368	 -0,113	 -15,644	 425,100	 
0,007	 -20,359	 -0,113	 -15,637	 425,200	 
0,007	 -20,349	 -0,113	 -15,629	 425,300	 
0,006	 -20,340	 -0,113	 -15,622	 425,400	 
0,006	 -20,331	 -0,113	 -15,614	 425,500	 
0,006	 -20,322	 -0,113	 -15,606	 425,600	 
0,006	 -20,316	 -0,113	 -15,596	 425,700	 
0,007	 -20,300	 -0,113	 -15,590	 425,800	 
0,007	 -20,295	 -0,113	 -15,583	 425,900	 
0,006	 -20,280	 -0,112	 -15,574	 426,000	 
0,007	 -20,269	 -0,113	 -15,566	 426,100	 
0,007	 -20,261	 -0,113	 -15,561	 426,200	 
0,007	 -20,249	 -0,113	 -15,553	 426,300	 
0,007	 -20,242	 -0,113	 -15,548	 426,400	 
0,007	 -20,230	 -0,113	 -15,539	 426,500	 
0,007	 -20,219	 -0,113	 -15,531	 426,600	 
0,007	 -20,211	 -0,113	 -15,520	 426,700	 
0,007	 -20,197	 -0,112	 -15,514	 426,800	 
0,007	 -20,189	 -0,113	 -15,506	 426,900	 
0,006	 -20,179	 -0,113	 -15,498	 427,000	 
0,007	 -20,169	 -0,113	 -15,491	 427,100	 
0,006	 -20,160	 -0,113	 -15,484	 427,200	 
0,006	 -20,152	 -0,113	 -15,478	 427,300	 
0,006	 -20,139	 -0,113	 -15,469	 427,400	 
0,006	 -20,132	 -0,113	 -15,460	 427,500	 
0,007	 -20,121	 -0,113	 -15,452	 427,600	 
0,007	 -20,109	 -0,113	 -15,442	 427,700	 
0,006	 -20,099	 -0,113	 -15,434	 427,800	 
0,007	 -20,089	 -0,113	 -15,429	 427,900	 
0,007	 -20,080	 -0,112	 -15,419	 428,000	 
0,007	 -20,068	 -0,112	 -15,411	 428,100	 
0,007	 -20,060	 -0,113	 -15,404	 428,200	 
0,007	 -20,049	 -0,112	 -15,398	 428,300	 
0,006	 -20,041	 -0,112	 -15,388	 428,400	 
0,007	 -20,031	 -0,113	 -15,382	 428,500	 
0,007	 -20,019	 -0,112	 -15,373	 428,600	 
0,007	 -20,013	 -0,113	 -15,366	 428,700	 
0,007	 -20,000	 -0,113	 -15,359	 428,800	 
0,007	 -19,991	 -0,113	 -15,352	 428,900	 
0,007	 -19,981	 -0,113	 -15,344	 429,000	 
0,007	 -19,970	 -0,113	 -15,336	 429,100	 
0,007	 -19,960	 -0,113	 -15,328	 429,200	 
0,007	 -19,951	 -0,112	 -15,322	 429,300	 
0,007	 -19,940	 -0,113	 -15,315	 429,400	 
0,007	 -19,929	 -0,113	 -15,304	 429,500	 
0,007	 -19,915	 -0,113	 -15,299	 429,600	 
0,007	 -19,908	 -0,113	 -15,289	 429,700	 
0,007	 -19,900	 -0,113	 -15,281	 429,800	 
0,007	 -19,886	 -0,113	 -15,275	 429,900	 
0,007	 -19,879	 -0,112	 -15,265	 430,000	 
0,007	 -19,868	 -0,112	 -15,259	 430,100	 
0,007	 -19,858	 -0,113	 -15,251	 430,200	 
0,007	 -19,850	 -0,113	 -15,243	 430,300	 
0,007	 -19,839	 -0,112	 -15,235	 430,400	 
0,007	 -19,830	 -0,113	 -15,229	 430,500	 
0,007	 -19,819	 -0,113	 -15,222	 430,600	 
0,007	 -19,810	 -0,113	 -15,209	 430,700	 
0,007	 -19,798	 -0,112	 -15,204	 430,800	 
0,007	 -19,791	 -0,112	 -15,196	 430,900	 
0,007	 -19,778	 -0,113	 -15,187	 431,000	 
0,007	 -19,769	 -0,113	 -15,180	 431,100	 
0,007	 -19,763	 -0,113	 -15,168	 431,200	 
0,007	 -19,750	 -0,113	 -15,166	 431,300	 
0,007	 -19,741	 -0,113	 -15,156	 431,400	 
0,007	 -19,734	 -0,113	 -15,149	 431,500	 
0,007	 -19,719	 -0,112	 -15,140	 431,600	 
0,007	 -19,712	 -0,113	 -15,137	 431,700	 
0,007	 -19,703	 -0,112	 -15,124	 431,800	 
0,007	 -19,690	 -0,113	 -15,117	 431,900	 
0,007	 -19,679	 -0,113	 -15,111	 432,000	 
0,007	 -19,671	 -0,113	 -15,104	 432,100	 
0,007	 -19,661	 -0,113	 -15,094	 432,200	 
0,007	 -19,651	 -0,112	 -15,088	 432,300	 
0,007	 -19,640	 -0,112	 -15,081	 432,400	 
0,007	 -19,632	 -0,113	 -15,077	 432,500	 
0,007	 -19,623	 -0,113	 -15,066	 432,600	 
0,007	 -19,609	 -0,113	 -15,059	 432,700	 
0,007	 -19,603	 -0,113	 -15,051	 432,800	 
0,007	 -19,594	 -0,113	 -15,044	 432,900	 
0,007	 -19,579	 -0,113	 -15,038	 433,000	 
0,007	 -19,571	 -0,113	 -15,029	 433,100	 
0,007	 -19,560	 -0,113	 -15,020	 433,200	 
0,007	 -19,549	 -0,112	 -15,013	 433,300	 
0,007	 -19,539	 -0,113	 -15,003	 433,400	 
0,007	 -19,531	 -0,113	 -14,995	 433,500	 
0,007	 -19,519	 -0,113	 -14,986	 433,600	 
0,007	 -19,508	 -0,113	 -14,978	 433,700	 
0,007	 -19,502	 -0,112	 -14,970	 433,800	 
0,007	 -19,489	 -0,113	 -14,967	 433,900	 
0,007	 -19,480	 -0,113	 -14,958	 434,000	 
0,007	 -19,474	 -0,112	 -14,950	 434,100	 
0,007	 -19,462	 -0,112	 -14,945	 434,200	 
0,007	 -19,451	 -0,113	 -14,936	 434,300	 
0,007	 -19,443	 -0,113	 -14,929	 434,400	 
0,007	 -19,429	 -0,113	 -14,921	 434,500	 
0,007	 -19,421	 -0,112	 -14,913	 434,600	 
0,007	 -19,413	 -0,113	 -14,905	 434,700	 
0,007	 -19,400	 -0,113	 -14,898	 434,800	 
0,007	 -19,387	 -0,113	 -14,890	 434,900	 
0,007	 -19,379	 -0,112	 -14,882	 435,000	 
0,007	 -19,369	 -0,113	 -14,874	 435,100	 
0,007	 -19,363	 -0,113	 -14,866	 435,200	 
0,007	 -19,348	 -0,112	 -14,858	 435,300	 
0,007	 -19,339	 -0,112	 -14,851	 435,400	 
0,007	 -19,328	 -0,112	 -14,847	 435,500	 
0,007	 -19,321	 -0,112	 -14,838	 435,600	 
0,007	 -19,310	 -0,113	 -14,830	 435,700	 
0,007	 -19,299	 -0,112	 -14,823	 435,800	 
0,007	 -19,292	 -0,113	 -14,815	 435,900	 
0,007	 -19,283	 -0,113	 -14,808	 436,000	 
0,007	 -19,271	 -0,112	 -14,801	 436,100	 
0,007	 -19,263	 -0,113	 -14,791	 436,200	 
0,007	 -19,252	 -0,113	 -14,780	 436,300	 
0,007	 -19,241	 -0,112	 -14,772	 436,400	 
0,007	 -19,228	 -0,113	 -14,766	 436,500	 
0,007	 -19,220	 -0,113	 -14,759	 436,600	 
0,007	 -19,208	 -0,112	 -14,748	 436,700	 
0,007	 -19,200	 -0,112	 -14,742	 436,800	 
0,007	 -19,191	 -0,112	 -14,733	 436,900	 
0,007	 -19,177	 -0,113	 -14,724	 437,000	 
0,007	 -19,169	 -0,112	 -14,721	 437,100	 
0,007	 -19,160	 -0,112	 -14,710	 437,200	 
0,007	 -19,149	 -0,113	 -14,703	 437,300	 
0,007	 -19,138	 -0,113	 -14,696	 437,400	 
0,007	 -19,133	 -0,112	 -14,687	 437,500	 
0,007	 -19,120	 -0,112	 -14,681	 437,600	 
0,007	 -19,111	 -0,113	 -14,674	 437,700	 
0,007	 -19,100	 -0,113	 -14,666	 437,800	 
0,007	 -19,089	 -0,112	 -14,657	 437,900	 
0,007	 -19,082	 -0,113	 -14,651	 438,000	 
0,007	 -19,073	 -0,113	 -14,643	 438,100	 
0,007	 -19,060	 -0,112	 -14,635	 438,200	 
0,007	 -19,053	 -0,113	 -14,628	 438,300	 
0,007	 -19,042	 -0,113	 -14,619	 438,400	 
0,007	 -19,031	 -0,113	 -14,611	 438,500	 
0,007	 -19,018	 -0,112	 -14,603	 438,600	 
0,007	 -19,010	 -0,113	 -14,597	 438,700	 
0,007	 -18,998	 -0,113	 -14,590	 438,800	 
0,007	 -18,991	 -0,113	 -14,582	 438,900	 
0,007	 -18,980	 -0,113	 -14,577	 439,000	 
0,007	 -18,971	 -0,112	 -14,566	 439,100	 
0,007	 -18,961	 -0,113	 -14,558	 439,200	 
0,007	 -18,952	 -0,113	 -14,551	 439,300	 
0,007	 -18,942	 -0,113	 -14,544	 439,400	 
0,007	 -18,932	 -0,113	 -14,535	 439,500	 
0,007	 -18,923	 -0,113	 -14,531	 439,600	 
0,007	 -18,913	 -0,113	 -14,523	 439,700	 
0,007	 -18,904	 -0,113	 -14,515	 439,800	 
0,007	 -18,894	 -0,112	 -14,507	 439,900	 
0,007	 -18,883	 -0,112	 -14,499	 440,000	 
0,007	 -18,872	 -0,113	 -14,490	 440,100	 
0,007	 -18,859	 -0,112	 -14,480	 440,200	 
0,007	 -18,851	 -0,113	 -14,479	 440,300	 
0,007	 -18,843	 -0,113	 -14,466	 440,400	 
0,007	 -18,829	 -0,113	 -14,459	 440,500	 
0,007	 -18,821	 -0,113	 -14,451	 440,600	 
0,007	 -18,807	 -0,113	 -14,448	 440,700	 
0,007	 -18,799	 -0,113	 -14,439	 440,800	 
0,007	 -18,793	 -0,113	 -14,431	 440,900	 
0,007	 -18,783	 -0,113	 -14,422	 441,000	 
0,007	 -18,769	 -0,113	 -14,413	 441,100	 
0,007	 -18,764	 -0,113	 -14,406	 441,200	 
0,007	 -18,752	 -0,113	 -14,400	 441,300	 
0,007	 -18,741	 -0,113	 -14,392	 441,400	 
0,007	 -18,730	 -0,113	 -14,384	 441,500	 
0,007	 -18,723	 -0,113	 -14,376	 441,600	 
0,007	 -18,712	 -0,113	 -14,368	 441,700	 
0,007	 -18,704	 -0,112	 -14,360	 441,800	 
0,007	 -18,690	 -0,113	 -14,354	 441,900	 
0,007	 -18,681	 -0,113	 -14,346	 442,000	 
0,007	 -18,676	 -0,113	 -14,341	 442,100	 
0,007	 -18,661	 -0,112	 -14,333	 442,200	 
0,007	 -18,652	 -0,113	 -14,322	 442,300	 
0,007	 -18,645	 -0,112	 -14,314	 442,400	 
0,007	 -18,632	 -0,113	 -14,310	 442,500	 
0,007	 -18,621	 -0,112	 -14,299	 442,600	 
0,007	 -18,611	 -0,112	 -14,294	 442,700	 
0,007	 -18,602	 -0,113	 -14,286	 442,800	 
0,007	 -18,590	 -0,113	 -14,278	 442,900	 
0,007	 -18,579	 -0,113	 -14,273	 443,000	 
0,007	 -18,573	 -0,113	 -14,265	 443,100	 
0,007	 -18,560	 -0,113	 -14,255	 443,200	 
0,007	 -18,553	 -0,113	 -14,248	 443,300	 
