WORKSHOP 3 EXPORTED DATA: [C:\Documents and Settings\Administrator\Pulpit\Rozciaganie\w5_1.W01 - 1]
*************************************************************************************************
Source of data: ScriptPl
WS3 File Version: 1,05
Number of bytes in subfile: 76187
Total number of data points: 3784
Test date: 30-01-2018
Test time: 15:27:15
Player Step: 1
Step Capture No: 1
Actuator: 1
*************************************************************************************************
Actuator: 1  Channel:0	 Actuator: 1  Channel:1	 Actuator: 1  Channel:2	 Actuator: 1  Channel:3	 Actuator: 1  Channel:4	 
Load (kN)	 Stroke (mm)	 Extension (mm)	 Command (%)	 Time (s)	 
1,329	 -51,667	 -0,121	 -39,709	 0,000	 
1,328	 -51,666	 -0,121	 -39,710	 0,100	 
1,331	 -51,667	 -0,121	 -39,702	 0,200	 
1,339	 -51,669	 -0,121	 -39,704	 0,300	 
1,350	 -51,669	 -0,121	 -39,705	 0,400	 
1,364	 -51,666	 -0,121	 -39,702	 0,500	 
1,375	 -51,666	 -0,121	 -39,704	 0,600	 
1,394	 -51,666	 -0,121	 -39,693	 0,700	 
1,415	 -51,667	 -0,121	 -39,700	 0,800	 
1,431	 -51,666	 -0,121	 -39,704	 0,900	 
1,449	 -51,666	 -0,120	 -39,698	 1,000	 
1,463	 -51,662	 -0,121	 -39,702	 1,100	 
1,485	 -51,660	 -0,121	 -39,696	 1,200	 
1,499	 -51,660	 -0,121	 -39,700	 1,300	 
1,523	 -51,662	 -0,121	 -39,699	 1,400	 
1,536	 -51,666	 -0,121	 -39,697	 1,500	 
1,559	 -51,666	 -0,121	 -39,697	 1,600	 
1,578	 -51,660	 -0,120	 -39,692	 1,700	 
1,595	 -51,663	 -0,120	 -39,695	 1,800	 
1,614	 -51,659	 -0,120	 -39,691	 1,900	 
1,635	 -51,659	 -0,120	 -39,696	 2,000	 
1,658	 -51,658	 -0,120	 -39,692	 2,100	 
1,687	 -51,659	 -0,120	 -39,689	 2,200	 
1,713	 -51,659	 -0,120	 -39,688	 2,300	 
1,742	 -51,659	 -0,120	 -39,690	 2,400	 
1,777	 -51,659	 -0,120	 -39,691	 2,500	 
1,814	 -51,659	 -0,120	 -39,684	 2,600	 
1,850	 -51,654	 -0,120	 -39,683	 2,700	 
1,891	 -51,653	 -0,120	 -39,683	 2,800	 
1,941	 -51,652	 -0,119	 -39,689	 2,900	 
1,976	 -51,653	 -0,119	 -39,683	 3,000	 
2,017	 -51,652	 -0,119	 -39,680	 3,100	 
2,053	 -51,648	 -0,119	 -39,678	 3,200	 
2,090	 -51,648	 -0,119	 -39,680	 3,300	 
2,122	 -51,652	 -0,119	 -39,682	 3,400	 
2,163	 -51,647	 -0,119	 -39,675	 3,500	 
2,210	 -51,646	 -0,119	 -39,683	 3,600	 
2,261	 -51,646	 -0,118	 -39,678	 3,700	 
2,307	 -51,652	 -0,118	 -39,673	 3,800	 
2,360	 -51,643	 -0,119	 -39,678	 3,900	 
2,403	 -51,643	 -0,118	 -39,680	 4,000	 
2,452	 -51,640	 -0,117	 -39,683	 4,100	 
2,516	 -51,643	 -0,117	 -39,671	 4,200	 
2,561	 -51,638	 -0,117	 -39,674	 4,300	 
2,594	 -51,631	 -0,117	 -39,670	 4,400	 
2,634	 -51,637	 -0,117	 -39,672	 4,500	 
2,667	 -51,638	 -0,117	 -39,672	 4,600	 
2,698	 -51,634	 -0,117	 -39,665	 4,700	 
2,734	 -51,631	 -0,117	 -39,667	 4,800	 
2,759	 -51,634	 -0,117	 -39,671	 4,900	 
2,789	 -51,634	 -0,116	 -39,666	 5,000	 
2,854	 -51,631	 -0,116	 -39,665	 5,100	 
2,903	 -51,624	 -0,116	 -39,662	 5,200	 
2,945	 -51,629	 -0,116	 -39,661	 5,300	 
2,979	 -51,631	 -0,116	 -39,662	 5,400	 
3,022	 -51,631	 -0,116	 -39,662	 5,500	 
3,057	 -51,624	 -0,116	 -39,660	 5,600	 
3,095	 -51,619	 -0,116	 -39,661	 5,700	 
3,131	 -51,629	 -0,115	 -39,658	 5,800	 
3,173	 -51,629	 -0,115	 -39,657	 5,900	 
3,202	 -51,620	 -0,115	 -39,665	 6,000	 
3,247	 -51,620	 -0,115	 -39,658	 6,100	 
3,286	 -51,624	 -0,115	 -39,651	 6,200	 
3,321	 -51,621	 -0,115	 -39,652	 6,300	 
3,353	 -51,616	 -0,115	 -39,654	 6,400	 
3,392	 -51,617	 -0,115	 -39,652	 6,500	 
3,434	 -51,616	 -0,115	 -39,646	 6,600	 
3,467	 -51,616	 -0,114	 -39,646	 6,700	 
3,506	 -51,616	 -0,114	 -39,648	 6,800	 
3,559	 -51,613	 -0,114	 -39,648	 6,900	 
3,613	 -51,609	 -0,114	 -39,647	 7,000	 
3,660	 -51,610	 -0,114	 -39,647	 7,100	 
3,712	 -51,610	 -0,113	 -39,644	 7,200	 
3,760	 -51,608	 -0,113	 -39,644	 7,300	 
3,799	 -51,609	 -0,113	 -39,645	 7,400	 
3,829	 -51,609	 -0,113	 -39,643	 7,500	 
3,858	 -51,605	 -0,113	 -39,647	 7,600	 
3,887	 -51,603	 -0,113	 -39,644	 7,700	 
3,913	 -51,607	 -0,113	 -39,641	 7,800	 
3,938	 -51,609	 -0,113	 -39,641	 7,900	 
3,976	 -51,602	 -0,112	 -39,643	 8,000	 
4,034	 -51,604	 -0,112	 -39,641	 8,100	 
4,111	 -51,602	 -0,112	 -39,635	 8,200	 
4,183	 -51,602	 -0,111	 -39,637	 8,300	 
4,238	 -51,601	 -0,111	 -39,638	 8,400	 
4,283	 -51,595	 -0,111	 -39,636	 8,500	 
4,318	 -51,598	 -0,111	 -39,636	 8,600	 
4,352	 -51,596	 -0,111	 -39,633	 8,700	 
4,382	 -51,595	 -0,111	 -39,634	 8,800	 
4,416	 -51,594	 -0,110	 -39,634	 8,900	 
4,444	 -51,593	 -0,110	 -39,631	 9,000	 
4,485	 -51,592	 -0,110	 -39,634	 9,100	 
4,536	 -51,587	 -0,110	 -39,629	 9,200	 
4,583	 -51,589	 -0,110	 -39,630	 9,300	 
4,635	 -51,589	 -0,110	 -39,628	 9,400	 
4,683	 -51,587	 -0,110	 -39,628	 9,500	 
4,726	 -51,588	 -0,109	 -39,628	 9,600	 
4,767	 -51,588	 -0,109	 -39,626	 9,700	 
4,814	 -51,587	 -0,109	 -39,627	 9,800	 
4,853	 -51,580	 -0,108	 -39,624	 9,900	 
4,891	 -51,581	 -0,108	 -39,627	 10,000	 
4,946	 -51,584	 -0,108	 -39,628	 10,100	 
4,994	 -51,575	 -0,108	 -39,620	 10,200	 
5,034	 -51,578	 -0,108	 -39,623	 10,300	 
5,079	 -51,579	 -0,108	 -39,622	 10,400	 
5,117	 -51,582	 -0,107	 -39,621	 10,500	 
5,150	 -51,576	 -0,107	 -39,620	 10,600	 
5,183	 -51,577	 -0,107	 -39,617	 10,700	 
5,220	 -51,574	 -0,107	 -39,616	 10,800	 
5,252	 -51,573	 -0,107	 -39,617	 10,900	 
5,301	 -51,570	 -0,106	 -39,617	 11,000	 
5,352	 -51,572	 -0,106	 -39,617	 11,100	 
5,407	 -51,573	 -0,106	 -39,615	 11,200	 
5,462	 -51,574	 -0,106	 -39,615	 11,300	 
5,546	 -51,574	 -0,105	 -39,614	 11,400	 
5,603	 -51,567	 -0,106	 -39,615	 11,500	 
5,653	 -51,569	 -0,105	 -39,617	 11,600	 
5,696	 -51,561	 -0,105	 -39,608	 11,700	 
5,725	 -51,561	 -0,105	 -39,610	 11,800	 
5,752	 -51,559	 -0,105	 -39,610	 11,900	 
5,781	 -51,560	 -0,104	 -39,610	 12,000	 
5,811	 -51,561	 -0,104	 -39,610	 12,100	 
5,853	 -51,561	 -0,104	 -39,604	 12,200	 
5,899	 -51,558	 -0,105	 -39,608	 12,300	 
5,958	 -51,561	 -0,104	 -39,605	 12,400	 
6,028	 -51,561	 -0,103	 -39,606	 12,500	 
6,083	 -51,556	 -0,103	 -39,604	 12,600	 
6,133	 -51,553	 -0,103	 -39,601	 12,700	 
6,177	 -51,558	 -0,103	 -39,602	 12,800	 
6,215	 -51,549	 -0,103	 -39,603	 12,900	 
6,256	 -51,554	 -0,102	 -39,601	 13,000	 
6,295	 -51,551	 -0,102	 -39,603	 13,100	 
6,341	 -51,550	 -0,102	 -39,597	 13,200	 
6,380	 -51,553	 -0,102	 -39,598	 13,300	 
6,414	 -51,543	 -0,102	 -39,599	 13,400	 
6,445	 -51,547	 -0,102	 -39,601	 13,500	 
6,506	 -51,544	 -0,101	 -39,599	 13,600	 
6,566	 -51,546	 -0,101	 -39,593	 13,700	 
6,625	 -51,545	 -0,102	 -39,597	 13,800	 
6,677	 -51,543	 -0,101	 -39,595	 13,900	 
6,725	 -51,551	 -0,100	 -39,596	 14,000	 
6,767	 -51,549	 -0,100	 -39,594	 14,100	 
6,807	 -51,543	 -0,100	 -39,590	 14,200	 
6,839	 -51,540	 -0,100	 -39,593	 14,300	 
6,880	 -51,536	 -0,100	 -39,593	 14,400	 
6,927	 -51,538	 -0,100	 -39,588	 14,500	 
6,968	 -51,540	 -0,099	 -39,586	 14,600	 
7,004	 -51,535	 -0,099	 -39,589	 14,700	 
7,034	 -51,536	 -0,099	 -39,589	 14,800	 
7,066	 -51,539	 -0,099	 -39,586	 14,900	 
7,110	 -51,537	 -0,099	 -39,585	 15,000	 
7,165	 -51,531	 -0,099	 -39,585	 15,100	 
7,220	 -51,536	 -0,098	 -39,584	 15,200	 
7,279	 -51,528	 -0,099	 -39,581	 15,300	 
7,347	 -51,532	 -0,098	 -39,581	 15,400	 
7,395	 -51,530	 -0,097	 -39,582	 15,500	 
7,451	 -51,532	 -0,097	 -39,579	 15,600	 
7,487	 -51,524	 -0,097	 -39,577	 15,700	 
7,525	 -51,524	 -0,097	 -39,578	 15,800	 
7,566	 -51,525	 -0,097	 -39,581	 15,900	 
7,665	 -51,520	 -0,097	 -39,582	 16,000	 
7,746	 -51,521	 -0,096	 -39,573	 16,100	 
7,812	 -51,518	 -0,096	 -39,577	 16,200	 
7,861	 -51,523	 -0,096	 -39,577	 16,300	 
7,899	 -51,523	 -0,095	 -39,576	 16,400	 
7,937	 -51,516	 -0,095	 -39,575	 16,500	 
7,967	 -51,523	 -0,095	 -39,572	 16,600	 
7,996	 -51,515	 -0,095	 -39,575	 16,700	 
8,027	 -51,518	 -0,095	 -39,574	 16,800	 
8,055	 -51,518	 -0,095	 -39,573	 16,900	 
8,094	 -51,510	 -0,094	 -39,573	 17,000	 
8,130	 -51,511	 -0,094	 -39,568	 17,100	 
8,169	 -51,518	 -0,094	 -39,567	 17,200	 
8,208	 -51,514	 -0,094	 -39,568	 17,300	 
8,248	 -51,506	 -0,093	 -39,566	 17,400	 
8,287	 -51,506	 -0,094	 -39,568	 17,500	 
8,316	 -51,511	 -0,093	 -39,564	 17,600	 
8,353	 -51,507	 -0,094	 -39,564	 17,700	 
8,387	 -51,511	 -0,093	 -39,564	 17,800	 
8,428	 -51,504	 -0,093	 -39,566	 17,900	 
8,482	 -51,503	 -0,093	 -39,564	 18,000	 
8,528	 -51,503	 -0,092	 -39,560	 18,100	 
8,571	 -51,505	 -0,092	 -39,560	 18,200	 
8,626	 -51,505	 -0,092	 -39,560	 18,300	 
8,698	 -51,505	 -0,092	 -39,560	 18,400	 
8,747	 -51,503	 -0,092	 -39,559	 18,500	 
8,796	 -51,497	 -0,092	 -39,556	 18,600	 
8,844	 -51,496	 -0,091	 -39,556	 18,700	 
8,893	 -51,497	 -0,091	 -39,557	 18,800	 
8,934	 -51,496	 -0,091	 -39,555	 18,900	 
8,977	 -51,492	 -0,091	 -39,558	 19,000	 
9,018	 -51,497	 -0,090	 -39,553	 19,100	 
9,050	 -51,496	 -0,090	 -39,554	 19,200	 
9,095	 -51,499	 -0,090	 -39,553	 19,300	 
9,144	 -51,488	 -0,090	 -39,553	 19,400	 
9,186	 -51,489	 -0,090	 -39,553	 19,500	 
9,226	 -51,490	 -0,090	 -39,549	 19,600	 
9,263	 -51,489	 -0,089	 -39,547	 19,700	 
9,325	 -51,488	 -0,089	 -39,549	 19,800	 
9,372	 -51,489	 -0,089	 -39,549	 19,900	 
9,417	 -51,491	 -0,088	 -39,550	 20,000	 
9,461	 -51,484	 -0,088	 -39,542	 20,100	 
9,510	 -51,479	 -0,088	 -39,544	 20,200	 
9,570	 -51,482	 -0,088	 -39,546	 20,300	 
9,636	 -51,486	 -0,087	 -39,545	 20,400	 
9,707	 -51,481	 -0,087	 -39,544	 20,500	 
9,760	 -51,478	 -0,087	 -39,542	 20,600	 
9,797	 -51,484	 -0,087	 -39,538	 20,700	 
9,830	 -51,484	 -0,087	 -39,542	 20,800	 
9,863	 -51,476	 -0,086	 -39,540	 20,900	 
9,900	 -51,479	 -0,087	 -39,542	 21,000	 
9,937	 -51,479	 -0,086	 -39,536	 21,100	 
9,977	 -51,478	 -0,086	 -39,536	 21,200	 
10,033	 -51,471	 -0,086	 -39,535	 21,300	 
10,082	 -51,473	 -0,085	 -39,538	 21,400	 
10,145	 -51,471	 -0,085	 -39,538	 21,500	 
10,208	 -51,470	 -0,085	 -39,530	 21,600	 
10,264	 -51,474	 -0,085	 -39,530	 21,700	 
10,316	 -51,467	 -0,084	 -39,534	 21,800	 
10,369	 -51,465	 -0,084	 -39,535	 21,900	 
10,416	 -51,468	 -0,084	 -39,533	 22,000	 
10,460	 -51,468	 -0,084	 -39,531	 22,100	 
10,503	 -51,464	 -0,084	 -39,533	 22,200	 
10,542	 -51,464	 -0,084	 -39,534	 22,300	 
10,580	 -51,463	 -0,083	 -39,532	 22,400	 
10,624	 -51,460	 -0,083	 -39,533	 22,500	 
10,671	 -51,461	 -0,083	 -39,527	 22,600	 
10,719	 -51,459	 -0,082	 -39,527	 22,700	 
10,774	 -51,459	 -0,082	 -39,527	 22,800	 
10,823	 -51,455	 -0,082	 -39,527	 22,900	 
10,871	 -51,457	 -0,082	 -39,528	 23,000	 
10,929	 -51,454	 -0,082	 -39,525	 23,100	 
10,989	 -51,453	 -0,081	 -39,519	 23,200	 
11,046	 -51,454	 -0,081	 -39,521	 23,300	 
11,096	 -51,452	 -0,081	 -39,525	 23,400	 
11,160	 -51,452	 -0,081	 -39,525	 23,500	 
11,216	 -51,450	 -0,080	 -39,520	 23,600	 
11,267	 -51,448	 -0,081	 -39,520	 23,700	 
11,313	 -51,447	 -0,080	 -39,516	 23,800	 
11,351	 -51,448	 -0,080	 -39,520	 23,900	 
11,382	 -51,447	 -0,079	 -39,517	 24,000	 
11,421	 -51,445	 -0,080	 -39,513	 24,100	 
11,467	 -51,444	 -0,079	 -39,516	 24,200	 
11,519	 -51,443	 -0,078	 -39,515	 24,300	 
11,559	 -51,440	 -0,078	 -39,513	 24,400	 
11,607	 -51,442	 -0,079	 -39,516	 24,500	 
11,660	 -51,440	 -0,078	 -39,514	 24,600	 
11,719	 -51,440	 -0,078	 -39,509	 24,700	 
11,764	 -51,441	 -0,078	 -39,510	 24,800	 
11,808	 -51,440	 -0,078	 -39,511	 24,900	 
11,846	 -51,437	 -0,077	 -39,514	 25,000	 
11,893	 -51,437	 -0,077	 -39,507	 25,100	 
11,951	 -51,438	 -0,077	 -39,507	 25,200	 
12,004	 -51,436	 -0,077	 -39,508	 25,300	 
12,050	 -51,433	 -0,077	 -39,506	 25,400	 
12,093	 -51,433	 -0,076	 -39,507	 25,500	 
12,137	 -51,433	 -0,076	 -39,501	 25,600	 
12,185	 -51,428	 -0,076	 -39,503	 25,700	 
12,247	 -51,428	 -0,076	 -39,505	 25,800	 
12,310	 -51,431	 -0,075	 -39,503	 25,900	 
12,363	 -51,429	 -0,075	 -39,501	 26,000	 
12,427	 -51,424	 -0,075	 -39,499	 26,100	 
12,486	 -51,425	 -0,074	 -39,500	 26,200	 
12,537	 -51,422	 -0,074	 -39,500	 26,300	 
12,583	 -51,422	 -0,074	 -39,499	 26,400	 
12,614	 -51,421	 -0,074	 -39,500	 26,500	 
12,652	 -51,418	 -0,074	 -39,498	 26,600	 
12,691	 -51,423	 -0,074	 -39,499	 26,700	 
12,731	 -51,418	 -0,073	 -39,496	 26,800	 
12,776	 -51,420	 -0,073	 -39,497	 26,900	 
12,817	 -51,420	 -0,073	 -39,496	 27,000	 
12,882	 -51,419	 -0,073	 -39,492	 27,100	 
12,965	 -51,418	 -0,072	 -39,492	 27,200	 
13,049	 -51,411	 -0,072	 -39,493	 27,300	 
13,108	 -51,414	 -0,071	 -39,496	 27,400	 
13,165	 -51,415	 -0,071	 -39,492	 27,500	 
13,210	 -51,412	 -0,071	 -39,490	 27,600	 
13,245	 -51,411	 -0,071	 -39,490	 27,700	 
13,283	 -51,412	 -0,070	 -39,488	 27,800	 
13,317	 -51,411	 -0,070	 -39,491	 27,900	 
13,367	 -51,411	 -0,070	 -39,489	 28,000	 
13,412	 -51,407	 -0,070	 -39,483	 28,100	 
13,472	 -51,406	 -0,070	 -39,486	 28,200	 
13,540	 -51,408	 -0,070	 -39,483	 28,300	 
13,601	 -51,404	 -0,069	 -39,486	 28,400	 
13,643	 -51,404	 -0,069	 -39,484	 28,500	 
13,684	 -51,403	 -0,069	 -39,483	 28,600	 
13,724	 -51,404	 -0,068	 -39,478	 28,700	 
13,765	 -51,401	 -0,068	 -39,480	 28,800	 
13,840	 -51,398	 -0,068	 -39,481	 28,900	 
13,904	 -51,397	 -0,068	 -39,479	 29,000	 
13,954	 -51,397	 -0,067	 -39,478	 29,100	 
14,003	 -51,395	 -0,067	 -39,477	 29,200	 
14,036	 -51,396	 -0,067	 -39,477	 29,300	 
14,070	 -51,394	 -0,067	 -39,477	 29,400	 
14,114	 -51,396	 -0,067	 -39,477	 29,500	 
14,175	 -51,394	 -0,066	 -39,470	 29,600	 
14,248	 -51,392	 -0,066	 -39,474	 29,700	 
14,309	 -51,390	 -0,066	 -39,473	 29,800	 
14,359	 -51,389	 -0,065	 -39,471	 29,900	 
14,397	 -51,390	 -0,065	 -39,472	 30,000	 
14,434	 -51,387	 -0,065	 -39,472	 30,100	 
14,474	 -51,387	 -0,065	 -39,471	 30,200	 
14,524	 -51,390	 -0,065	 -39,468	 30,300	 
14,576	 -51,386	 -0,065	 -39,468	 30,400	 
14,625	 -51,382	 -0,064	 -39,470	 30,500	 
14,675	 -51,383	 -0,064	 -39,466	 30,600	 
14,731	 -51,381	 -0,063	 -39,465	 30,700	 
14,797	 -51,383	 -0,063	 -39,463	 30,800	 
14,850	 -51,381	 -0,063	 -39,466	 30,900	 
14,905	 -51,378	 -0,063	 -39,465	 31,000	 
14,953	 -51,381	 -0,063	 -39,461	 31,100	 
15,003	 -51,377	 -0,063	 -39,463	 31,200	 
15,054	 -51,377	 -0,062	 -39,461	 31,300	 
15,139	 -51,377	 -0,061	 -39,465	 31,400	 
15,217	 -51,376	 -0,061	 -39,456	 31,500	 
15,275	 -51,373	 -0,061	 -39,458	 31,600	 
15,320	 -51,374	 -0,060	 -39,461	 31,700	 
15,357	 -51,372	 -0,061	 -39,459	 31,800	 
15,389	 -51,374	 -0,060	 -39,459	 31,900	 
15,424	 -51,370	 -0,060	 -39,454	 32,000	 
15,463	 -51,369	 -0,060	 -39,455	 32,100	 
15,506	 -51,367	 -0,059	 -39,457	 32,200	 
15,543	 -51,366	 -0,059	 -39,457	 32,300	 
15,597	 -51,363	 -0,059	 -39,454	 32,400	 
15,648	 -51,364	 -0,059	 -39,452	 32,500	 
15,701	 -51,363	 -0,058	 -39,452	 32,600	 
15,745	 -51,362	 -0,059	 -39,449	 32,700	 
15,784	 -51,362	 -0,058	 -39,450	 32,800	 
15,832	 -51,360	 -0,058	 -39,451	 32,900	 
15,906	 -51,360	 -0,058	 -39,448	 33,000	 
15,986	 -51,359	 -0,057	 -39,447	 33,100	 
16,051	 -51,356	 -0,057	 -39,447	 33,200	 
16,101	 -51,353	 -0,057	 -39,448	 33,300	 
16,141	 -51,355	 -0,056	 -39,449	 33,400	 
16,175	 -51,355	 -0,056	 -39,441	 33,500	 
16,210	 -51,353	 -0,056	 -39,442	 33,600	 
16,258	 -51,353	 -0,056	 -39,441	 33,700	 
16,311	 -51,353	 -0,055	 -39,441	 33,800	 
16,373	 -51,352	 -0,055	 -39,439	 33,900	 
16,449	 -51,349	 -0,055	 -39,437	 34,000	 
16,507	 -51,347	 -0,055	 -39,440	 34,100	 
16,551	 -51,348	 -0,054	 -39,437	 34,200	 
16,587	 -51,347	 -0,054	 -39,439	 34,300	 
16,623	 -51,345	 -0,054	 -39,437	 34,400	 
16,657	 -51,348	 -0,054	 -39,436	 34,500	 
16,719	 -51,346	 -0,053	 -39,436	 34,600	 
16,791	 -51,344	 -0,053	 -39,437	 34,700	 
16,852	 -51,341	 -0,053	 -39,433	 34,800	 
16,901	 -51,344	 -0,053	 -39,436	 34,900	 
16,946	 -51,343	 -0,052	 -39,432	 35,000	 
16,994	 -51,339	 -0,052	 -39,432	 35,100	 
17,054	 -51,337	 -0,052	 -39,432	 35,200	 
17,116	 -51,339	 -0,051	 -39,434	 35,300	 
17,177	 -51,339	 -0,051	 -39,433	 35,400	 
17,229	 -51,335	 -0,051	 -39,426	 35,500	 
17,285	 -51,332	 -0,050	 -39,426	 35,600	 
17,329	 -51,333	 -0,050	 -39,430	 35,700	 
17,363	 -51,334	 -0,050	 -39,426	 35,800	 
17,405	 -51,332	 -0,050	 -39,426	 35,900	 
17,463	 -51,330	 -0,050	 -39,423	 36,000	 
17,539	 -51,330	 -0,049	 -39,423	 36,100	 
17,598	 -51,330	 -0,049	 -39,424	 36,200	 
17,648	 -51,330	 -0,049	 -39,423	 36,300	 
17,686	 -51,327	 -0,048	 -39,424	 36,400	 
17,727	 -51,325	 -0,048	 -39,422	 36,500	 
17,779	 -51,326	 -0,048	 -39,417	 36,600	 
17,813	 -51,325	 -0,047	 -39,416	 36,700	 
17,842	 -51,325	 -0,048	 -39,420	 36,800	 
17,885	 -51,324	 -0,047	 -39,422	 36,900	 
17,941	 -51,325	 -0,047	 -39,418	 37,000	 
18,005	 -51,321	 -0,047	 -39,416	 37,100	 
18,062	 -51,320	 -0,046	 -39,415	 37,200	 
18,117	 -51,321	 -0,046	 -39,415	 37,300	 
18,169	 -51,320	 -0,046	 -39,417	 37,400	 
18,241	 -51,318	 -0,045	 -39,411	 37,500	 
18,306	 -51,318	 -0,045	 -39,413	 37,600	 
18,373	 -51,314	 -0,045	 -39,413	 37,700	 
18,422	 -51,315	 -0,044	 -39,410	 37,800	 
18,470	 -51,313	 -0,044	 -39,411	 37,900	 
18,512	 -51,313	 -0,043	 -39,409	 38,000	 
18,553	 -51,313	 -0,043	 -39,410	 38,100	 
18,588	 -51,313	 -0,043	 -39,406	 38,200	 
18,637	 -51,307	 -0,043	 -39,404	 38,300	 
18,689	 -51,309	 -0,043	 -39,410	 38,400	 
18,760	 -51,306	 -0,043	 -39,405	 38,500	 
18,818	 -51,309	 -0,042	 -39,402	 38,600	 
18,867	 -51,305	 -0,041	 -39,403	 38,700	 
18,913	 -51,306	 -0,042	 -39,406	 38,800	 
18,992	 -51,302	 -0,041	 -39,406	 38,900	 
19,065	 -51,304	 -0,041	 -39,401	 39,000	 
19,123	 -51,301	 -0,041	 -39,401	 39,100	 
19,161	 -51,300	 -0,040	 -39,402	 39,200	 
19,193	 -51,301	 -0,040	 -39,398	 39,300	 
19,235	 -51,299	 -0,040	 -39,398	 39,400	 
19,274	 -51,297	 -0,039	 -39,400	 39,500	 
19,322	 -51,299	 -0,039	 -39,397	 39,600	 
19,392	 -51,296	 -0,039	 -39,395	 39,700	 
19,460	 -51,298	 -0,039	 -39,393	 39,800	 
19,513	 -51,295	 -0,038	 -39,395	 39,900	 
19,570	 -51,293	 -0,038	 -39,393	 40,000	 
19,616	 -51,293	 -0,038	 -39,393	 40,100	 
19,658	 -51,293	 -0,038	 -39,392	 40,200	 
19,710	 -51,293	 -0,037	 -39,391	 40,300	 
19,763	 -51,287	 -0,037	 -39,395	 40,400	 
19,834	 -51,290	 -0,037	 -39,390	 40,500	 
19,901	 -51,288	 -0,036	 -39,390	 40,600	 
19,940	 -51,287	 -0,036	 -39,389	 40,700	 
19,989	 -51,285	 -0,036	 -39,391	 40,800	 
20,031	 -51,285	 -0,035	 -39,390	 40,900	 
20,067	 -51,285	 -0,035	 -39,383	 41,000	 
20,100	 -51,282	 -0,035	 -39,386	 41,100	 
20,159	 -51,280	 -0,035	 -39,388	 41,200	 
20,231	 -51,281	 -0,034	 -39,384	 41,300	 
20,284	 -51,281	 -0,033	 -39,386	 41,400	 
20,328	 -51,278	 -0,034	 -39,381	 41,500	 
20,363	 -51,278	 -0,033	 -39,383	 41,600	 
20,402	 -51,280	 -0,033	 -39,380	 41,700	 
20,453	 -51,276	 -0,033	 -39,379	 41,800	 
20,537	 -51,274	 -0,032	 -39,381	 41,900	 
20,609	 -51,274	 -0,032	 -39,380	 42,000	 
20,661	 -51,274	 -0,031	 -39,380	 42,100	 
20,707	 -51,274	 -0,031	 -39,376	 42,200	 
20,757	 -51,271	 -0,031	 -39,377	 42,300	 
20,794	 -51,271	 -0,030	 -39,378	 42,400	 
20,841	 -51,271	 -0,030	 -39,373	 42,500	 
20,896	 -51,271	 -0,030	 -39,373	 42,600	 
20,949	 -51,264	 -0,030	 -39,377	 42,700	 
20,999	 -51,268	 -0,029	 -39,371	 42,800	 
21,055	 -51,267	 -0,029	 -39,374	 42,900	 
21,103	 -51,267	 -0,028	 -39,370	 43,000	 
21,152	 -51,263	 -0,028	 -39,369	 43,100	 
21,202	 -51,264	 -0,028	 -39,372	 43,200	 
21,260	 -51,264	 -0,028	 -39,370	 43,300	 
21,320	 -51,262	 -0,027	 -39,370	 43,400	 
21,383	 -51,258	 -0,027	 -39,366	 43,500	 
21,457	 -51,257	 -0,026	 -39,367	 43,600	 
21,526	 -51,258	 -0,026	 -39,366	 43,700	 
21,587	 -51,259	 -0,025	 -39,366	 43,800	 
21,635	 -51,255	 -0,025	 -39,366	 43,900	 
21,679	 -51,255	 -0,025	 -39,364	 44,000	 
21,712	 -51,257	 -0,024	 -39,366	 44,100	 
21,746	 -51,253	 -0,024	 -39,361	 44,200	 
21,779	 -51,249	 -0,024	 -39,366	 44,300	 
21,814	 -51,248	 -0,024	 -39,364	 44,400	 
21,866	 -51,250	 -0,023	 -39,358	 44,500	 
21,940	 -51,248	 -0,023	 -39,358	 44,600	 
22,021	 -51,246	 -0,022	 -39,354	 44,700	 
22,089	 -51,246	 -0,022	 -39,358	 44,800	 
22,140	 -51,247	 -0,021	 -39,358	 44,900	 
22,197	 -51,244	 -0,020	 -39,352	 45,000	 
22,273	 -51,239	 -0,020	 -39,354	 45,100	 
22,349	 -51,242	 -0,019	 -39,354	 45,200	 
22,398	 -51,239	 -0,019	 -39,353	 45,300	 
22,438	 -51,239	 -0,019	 -39,353	 45,400	 
22,470	 -51,238	 -0,018	 -39,351	 45,500	 
22,501	 -51,239	 -0,018	 -39,350	 45,600	 
22,531	 -51,240	 -0,017	 -39,349	 45,700	 
22,586	 -51,238	 -0,017	 -39,350	 45,800	 
22,634	 -51,235	 -0,016	 -39,350	 45,900	 
22,699	 -51,235	 -0,016	 -39,346	 46,000	 
22,750	 -51,233	 -0,015	 -39,344	 46,100	 
22,789	 -51,234	 -0,015	 -39,344	 46,200	 
22,838	 -51,230	 -0,014	 -39,346	 46,300	 
22,897	 -51,228	 -0,014	 -39,346	 46,400	 
22,957	 -51,229	 -0,013	 -39,344	 46,500	 
23,017	 -51,231	 -0,013	 -39,341	 46,600	 
23,058	 -51,228	 -0,013	 -39,343	 46,700	 
23,102	 -51,227	 -0,013	 -39,344	 46,800	 
23,131	 -51,227	 -0,012	 -39,341	 46,900	 
23,194	 -51,227	 -0,012	 -39,336	 47,000	 
23,238	 -51,227	 -0,011	 -39,341	 47,100	 
23,302	 -51,223	 -0,011	 -39,341	 47,200	 
23,355	 -51,225	 -0,010	 -39,341	 47,300	 
23,413	 -51,221	 -0,010	 -39,341	 47,400	 
23,454	 -51,220	 -0,009	 -39,337	 47,500	 
23,490	 -51,220	 -0,009	 -39,335	 47,600	 
23,527	 -51,219	 -0,008	 -39,332	 47,700	 
23,587	 -51,216	 -0,008	 -39,336	 47,800	 
23,644	 -51,215	 -0,007	 -39,338	 47,900	 
23,693	 -51,216	 -0,007	 -39,332	 48,000	 
23,751	 -51,218	 -0,007	 -39,332	 48,100	 
23,797	 -51,214	 -0,006	 -39,330	 48,200	 
23,844	 -51,213	 -0,006	 -39,332	 48,300	 
23,893	 -51,213	 -0,005	 -39,332	 48,400	 
23,926	 -51,213	 -0,005	 -39,328	 48,500	 
23,961	 -51,206	 -0,004	 -39,327	 48,600	 
24,014	 -51,210	 -0,004	 -39,328	 48,700	 
24,077	 -51,208	 -0,004	 -39,328	 48,800	 
24,146	 -51,209	 -0,003	 -39,324	 48,900	 
24,210	 -51,205	 -0,003	 -39,323	 49,000	 
24,264	 -51,206	 -0,002	 -39,325	 49,100	 
24,333	 -51,205	 -0,002	 -39,323	 49,200	 
24,383	 -51,204	 -0,002	 -39,323	 49,300	 
24,426	 -51,201	 -0,001	 -39,320	 49,400	 
24,459	 -51,201	 -0,001	 -39,322	 49,500	 
24,492	 -51,201	 -0,001	 -39,318	 49,600	 
24,520	 -51,200	 0,000	 -39,319	 49,700	 
24,575	 -51,200	 0,001	 -39,320	 49,800	 
24,637	 -51,198	 0,001	 -39,316	 49,900	 
24,700	 -51,199	 0,001	 -39,316	 50,000	 
24,744	 -51,197	 0,001	 -39,317	 50,100	 
24,799	 -51,195	 0,002	 -39,314	 50,200	 
24,856	 -51,197	 0,002	 -39,319	 50,300	 
24,898	 -51,191	 0,003	 -39,314	 50,400	 
24,940	 -51,193	 0,003	 -39,313	 50,500	 
24,990	 -51,190	 0,004	 -39,313	 50,600	 
25,055	 -51,191	 0,004	 -39,313	 50,700	 
25,116	 -51,193	 0,005	 -39,310	 50,800	 
25,168	 -51,190	 0,004	 -39,307	 50,900	 
25,212	 -51,186	 0,005	 -39,307	 51,000	 
25,253	 -51,184	 0,006	 -39,310	 51,100	 
25,307	 -51,188	 0,007	 -39,310	 51,200	 
25,365	 -51,184	 0,006	 -39,307	 51,300	 
25,414	 -51,183	 0,007	 -39,303	 51,400	 
25,481	 -51,180	 0,008	 -39,305	 51,500	 
25,544	 -51,184	 0,008	 -39,301	 51,600	 
25,610	 -51,183	 0,009	 -39,306	 51,700	 
25,667	 -51,177	 0,009	 -39,304	 51,800	 
25,722	 -51,177	 0,009	 -39,302	 51,900	 
25,764	 -51,178	 0,010	 -39,300	 52,000	 
25,798	 -51,176	 0,010	 -39,301	 52,100	 
25,830	 -51,175	 0,011	 -39,302	 52,200	 
25,901	 -51,176	 0,011	 -39,301	 52,300	 
25,967	 -51,177	 0,011	 -39,297	 52,400	 
26,019	 -51,175	 0,012	 -39,296	 52,500	 
26,062	 -51,169	 0,012	 -39,300	 52,600	 
26,096	 -51,172	 0,013	 -39,298	 52,700	 
26,131	 -51,171	 0,013	 -39,297	 52,800	 
26,184	 -51,170	 0,013	 -39,291	 52,900	 
26,233	 -51,169	 0,013	 -39,296	 53,000	 
26,269	 -51,169	 0,013	 -39,292	 53,100	 
26,301	 -51,166	 0,014	 -39,293	 53,200	 
26,348	 -51,166	 0,014	 -39,292	 53,300	 
26,421	 -51,163	 0,014	 -39,290	 53,400	 
26,481	 -51,162	 0,015	 -39,288	 53,500	 
26,524	 -51,163	 0,015	 -39,289	 53,600	 
26,562	 -51,163	 0,015	 -39,289	 53,700	 
26,599	 -51,161	 0,016	 -39,292	 53,800	 
26,646	 -51,161	 0,016	 -39,289	 53,900	 
26,695	 -51,161	 0,017	 -39,285	 54,000	 
26,747	 -51,158	 0,017	 -39,284	 54,100	 
26,783	 -51,157	 0,017	 -39,289	 54,200	 
26,832	 -51,160	 0,018	 -39,289	 54,300	 
26,886	 -51,155	 0,018	 -39,281	 54,400	 
26,952	 -51,151	 0,018	 -39,281	 54,500	 
27,014	 -51,152	 0,018	 -39,281	 54,600	 
27,060	 -51,152	 0,018	 -39,283	 54,700	 
27,099	 -51,151	 0,019	 -39,280	 54,800	 
27,136	 -51,151	 0,019	 -39,279	 54,900	 
27,193	 -51,149	 0,019	 -39,280	 55,000	 
27,253	 -51,149	 0,019	 -39,279	 55,100	 
27,317	 -51,149	 0,020	 -39,279	 55,200	 
27,382	 -51,146	 0,019	 -39,280	 55,300	 
27,437	 -51,146	 0,020	 -39,278	 55,400	 
27,471	 -51,146	 0,021	 -39,278	 55,500	 
27,509	 -51,146	 0,021	 -39,275	 55,600	 
27,539	 -51,143	 0,021	 -39,274	 55,700	 
27,607	 -51,140	 0,021	 -39,276	 55,800	 
27,677	 -51,144	 0,022	 -39,272	 55,900	 
27,734	 -51,140	 0,022	 -39,270	 56,000	 
27,775	 -51,140	 0,021	 -39,271	 56,100	 
27,815	 -51,138	 0,022	 -39,272	 56,200	 
27,843	 -51,139	 0,022	 -39,273	 56,300	 
27,885	 -51,137	 0,022	 -39,266	 56,400	 
27,925	 -51,135	 0,023	 -39,266	 56,500	 
27,980	 -51,133	 0,023	 -39,266	 56,600	 
28,059	 -51,137	 0,023	 -39,266	 56,700	 
28,145	 -51,133	 0,024	 -39,266	 56,800	 
28,201	 -51,130	 0,024	 -39,264	 56,900	 
28,247	 -51,126	 0,024	 -39,262	 57,000	 
28,282	 -51,131	 0,024	 -39,263	 57,100	 
28,314	 -51,126	 0,025	 -39,261	 57,200	 
28,339	 -51,126	 0,025	 -39,264	 57,300	 
28,377	 -51,126	 0,025	 -39,258	 57,400	 
28,453	 -51,125	 0,026	 -39,257	 57,500	 
28,518	 -51,124	 0,026	 -39,260	 57,600	 
28,567	 -51,123	 0,026	 -39,261	 57,700	 
28,618	 -51,123	 0,026	 -39,261	 57,800	 
28,679	 -51,124	 0,026	 -39,256	 57,900	 
28,798	 -51,123	 0,027	 -39,256	 58,000	 
28,896	 -51,119	 0,027	 -39,257	 58,100	 
28,958	 -51,119	 0,028	 -39,256	 58,200	 
28,999	 -51,119	 0,028	 -39,256	 58,300	 
29,032	 -51,117	 0,028	 -39,253	 58,400	 
29,063	 -51,116	 0,028	 -39,253	 58,500	 
29,089	 -51,116	 0,028	 -39,253	 58,600	 
29,106	 -51,115	 0,029	 -39,251	 58,700	 
29,144	 -51,116	 0,029	 -39,252	 58,800	 
29,200	 -51,111	 0,029	 -39,251	 58,900	 
29,252	 -51,110	 0,029	 -39,250	 59,000	 
29,298	 -51,114	 0,029	 -39,249	 59,100	 
29,359	 -51,114	 0,030	 -39,248	 59,200	 
29,415	 -51,110	 0,030	 -39,249	 59,300	 
29,464	 -51,109	 0,030	 -39,245	 59,400	 
29,501	 -51,109	 0,031	 -39,245	 59,500	 
29,556	 -51,105	 0,030	 -39,242	 59,600	 
29,631	 -51,108	 0,031	 -39,246	 59,700	 
29,711	 -51,103	 0,031	 -39,242	 59,800	 
29,769	 -51,103	 0,032	 -39,239	 59,900	 
29,811	 -51,103	 0,032	 -39,239	 60,000	 
29,847	 -51,100	 0,032	 -39,243	 60,100	 
29,880	 -51,101	 0,032	 -39,242	 60,200	 
29,906	 -51,097	 0,032	 -39,239	 60,300	 
29,942	 -51,100	 0,032	 -39,238	 60,400	 
29,996	 -51,098	 0,033	 -39,240	 60,500	 
30,062	 -51,100	 0,033	 -39,237	 60,600	 
30,114	 -51,100	 0,033	 -39,238	 60,700	 
30,175	 -51,094	 0,033	 -39,238	 60,800	 
30,233	 -51,094	 0,034	 -39,235	 60,900	 
30,275	 -51,095	 0,034	 -39,234	 61,000	 
30,308	 -51,094	 0,034	 -39,234	 61,100	 
30,347	 -51,089	 0,034	 -39,233	 61,200	 
30,382	 -51,089	 0,035	 -39,235	 61,300	 
30,424	 -51,089	 0,035	 -39,230	 61,400	 
30,478	 -51,090	 0,035	 -39,229	 61,500	 
30,528	 -51,085	 0,035	 -39,230	 61,600	 
30,565	 -51,087	 0,036	 -39,231	 61,700	 
30,607	 -51,089	 0,036	 -39,228	 61,800	 
30,649	 -51,086	 0,036	 -39,222	 61,900	 
30,699	 -51,082	 0,036	 -39,225	 62,000	 
30,743	 -51,082	 0,037	 -39,229	 62,100	 
30,782	 -51,081	 0,037	 -39,225	 62,200	 
30,841	 -51,082	 0,037	 -39,225	 62,300	 
30,910	 -51,079	 0,037	 -39,222	 62,400	 
30,968	 -51,080	 0,037	 -39,222	 62,500	 
31,013	 -51,079	 0,037	 -39,222	 62,600	 
31,058	 -51,079	 0,038	 -39,220	 62,700	 
31,105	 -51,076	 0,038	 -39,221	 62,800	 
31,157	 -51,076	 0,039	 -39,219	 62,900	 
31,212	 -51,078	 0,038	 -39,219	 63,000	 
31,261	 -51,073	 0,039	 -39,216	 63,100	 
31,301	 -51,071	 0,039	 -39,218	 63,200	 
31,351	 -51,072	 0,039	 -39,216	 63,300	 
31,412	 -51,073	 0,040	 -39,213	 63,400	 
31,484	 -51,070	 0,040	 -39,215	 63,500	 
31,544	 -51,070	 0,040	 -39,214	 63,600	 
31,594	 -51,066	 0,041	 -39,214	 63,700	 
31,639	 -51,068	 0,041	 -39,212	 63,800	 
31,674	 -51,066	 0,041	 -39,209	 63,900	 
31,707	 -51,065	 0,041	 -39,212	 64,000	 
31,756	 -51,063	 0,041	 -39,209	 64,100	 
31,839	 -51,063	 0,042	 -39,209	 64,200	 
31,929	 -51,063	 0,042	 -39,211	 64,300	 
31,999	 -51,060	 0,043	 -39,209	 64,400	 
32,051	 -51,059	 0,043	 -39,207	 64,500	 
32,093	 -51,060	 0,043	 -39,209	 64,600	 
32,115	 -51,059	 0,043	 -39,206	 64,700	 
32,139	 -51,058	 0,043	 -39,209	 64,800	 
32,160	 -51,058	 0,043	 -39,204	 64,900	 
32,182	 -51,057	 0,044	 -39,203	 65,000	 
32,211	 -51,056	 0,043	 -39,202	 65,100	 
32,264	 -51,054	 0,044	 -39,205	 65,200	 
32,314	 -51,052	 0,044	 -39,203	 65,300	 
32,369	 -51,053	 0,045	 -39,197	 65,400	 
32,444	 -51,045	 0,045	 -39,199	 65,500	 
32,512	 -51,046	 0,045	 -39,201	 65,600	 
32,568	 -51,045	 0,045	 -39,198	 65,700	 
32,617	 -51,047	 0,045	 -39,194	 65,800	 
32,655	 -51,045	 0,046	 -39,194	 65,900	 
32,693	 -51,045	 0,046	 -39,197	 66,000	 
32,726	 -51,044	 0,046	 -39,196	 66,100	 
32,775	 -51,044	 0,047	 -39,194	 66,200	 
32,819	 -51,043	 0,047	 -39,192	 66,300	 
32,869	 -51,042	 0,047	 -39,193	 66,400	 
32,952	 -51,042	 0,047	 -39,191	 66,500	 
33,015	 -51,042	 0,048	 -39,190	 66,600	 
33,061	 -51,037	 0,048	 -39,193	 66,700	 
33,100	 -51,038	 0,048	 -39,189	 66,800	 
33,143	 -51,039	 0,048	 -39,190	 66,900	 
33,186	 -51,037	 0,048	 -39,185	 67,000	 
33,237	 -51,037	 0,048	 -39,187	 67,100	 
33,320	 -51,036	 0,049	 -39,190	 67,200	 
33,402	 -51,035	 0,050	 -39,186	 67,300	 
33,457	 -51,032	 0,050	 -39,183	 67,400	 
33,494	 -51,029	 0,050	 -39,183	 67,500	 
33,529	 -51,031	 0,050	 -39,183	 67,600	 
33,562	 -51,031	 0,050	 -39,185	 67,700	 
33,588	 -51,031	 0,050	 -39,179	 67,800	 
33,627	 -51,027	 0,051	 -39,181	 67,900	 
33,677	 -51,028	 0,051	 -39,179	 68,000	 
33,732	 -51,028	 0,051	 -39,179	 68,100	 
33,781	 -51,024	 0,051	 -39,180	 68,200	 
33,833	 -51,028	 0,052	 -39,177	 68,300	 
33,883	 -51,024	 0,052	 -39,179	 68,400	 
33,929	 -51,024	 0,052	 -39,176	 68,500	 
34,004	 -51,022	 0,052	 -39,176	 68,600	 
34,075	 -51,021	 0,053	 -39,177	 68,700	 
34,120	 -51,021	 0,053	 -39,173	 68,800	 
34,163	 -51,022	 0,053	 -39,174	 68,900	 
34,189	 -51,019	 0,053	 -39,174	 69,000	 
34,219	 -51,017	 0,053	 -39,173	 69,100	 
34,264	 -51,017	 0,054	 -39,172	 69,200	 
34,352	 -51,016	 0,054	 -39,170	 69,300	 
34,428	 -51,017	 0,055	 -39,171	 69,400	 
34,489	 -51,011	 0,055	 -39,170	 69,500	 
34,535	 -51,009	 0,055	 -39,170	 69,600	 
34,567	 -51,011	 0,055	 -39,170	 69,700	 
34,600	 -51,008	 0,056	 -39,163	 69,800	 
34,639	 -51,007	 0,056	 -39,165	 69,900	 
34,722	 -51,008	 0,057	 -39,166	 70,000	 
34,786	 -51,007	 0,056	 -39,162	 70,100	 
34,830	 -51,005	 0,057	 -39,163	 70,200	 
34,865	 -51,004	 0,057	 -39,162	 70,300	 
34,902	 -51,004	 0,057	 -39,163	 70,400	 
34,934	 -51,004	 0,057	 -39,160	 70,500	 
34,970	 -51,002	 0,057	 -39,159	 70,600	 
35,006	 -51,004	 0,058	 -39,161	 70,700	 
35,059	 -51,002	 0,058	 -39,159	 70,800	 
35,138	 -51,003	 0,058	 -39,156	 70,900	 
35,213	 -50,998	 0,059	 -39,157	 71,000	 
35,273	 -50,997	 0,059	 -39,159	 71,100	 
35,324	 -50,996	 0,059	 -39,157	 71,200	 
35,362	 -50,995	 0,060	 -39,153	 71,300	 
35,401	 -50,997	 0,060	 -39,152	 71,400	 
35,431	 -50,994	 0,060	 -39,153	 71,500	 
35,464	 -50,996	 0,060	 -39,152	 71,600	 
35,498	 -50,992	 0,061	 -39,152	 71,700	 
35,549	 -50,992	 0,060	 -39,148	 71,800	 
35,612	 -50,990	 0,061	 -39,149	 71,900	 
35,678	 -50,992	 0,061	 -39,150	 72,000	 
35,737	 -50,992	 0,061	 -39,150	 72,100	 
35,799	 -50,988	 0,062	 -39,148	 72,200	 
35,852	 -50,986	 0,062	 -39,148	 72,300	 
35,893	 -50,987	 0,062	 -39,145	 72,400	 
35,936	 -50,987	 0,062	 -39,144	 72,500	 
35,981	 -50,986	 0,063	 -39,146	 72,600	 
36,048	 -50,983	 0,063	 -39,148	 72,700	 
36,134	 -50,981	 0,064	 -39,143	 72,800	 
36,197	 -50,978	 0,064	 -39,141	 72,900	 
36,242	 -50,978	 0,064	 -39,142	 73,000	 
36,286	 -50,978	 0,064	 -39,142	 73,100	 
36,319	 -50,978	 0,064	 -39,142	 73,200	 
36,344	 -50,978	 0,065	 -39,137	 73,300	 
36,374	 -50,976	 0,064	 -39,137	 73,400	 
36,440	 -50,975	 0,065	 -39,138	 73,500	 
36,497	 -50,975	 0,065	 -39,138	 73,600	 
36,546	 -50,974	 0,065	 -39,137	 73,700	 
36,585	 -50,974	 0,066	 -39,134	 73,800	 
36,635	 -50,972	 0,066	 -39,132	 73,900	 
36,684	 -50,971	 0,066	 -39,134	 74,000	 
36,725	 -50,969	 0,066	 -39,133	 74,100	 
36,769	 -50,968	 0,066	 -39,134	 74,200	 
36,813	 -50,966	 0,067	 -39,130	 74,300	 
36,868	 -50,971	 0,067	 -39,130	 74,400	 
36,914	 -50,966	 0,068	 -39,130	 74,500	 
36,966	 -50,964	 0,068	 -39,131	 74,600	 
37,033	 -50,963	 0,068	 -39,129	 74,700	 
37,086	 -50,963	 0,068	 -39,124	 74,800	 
37,143	 -50,963	 0,068	 -39,126	 74,900	 
37,188	 -50,961	 0,068	 -39,127	 75,000	 
37,231	 -50,961	 0,069	 -39,126	 75,100	 
37,265	 -50,961	 0,069	 -39,126	 75,200	 
37,310	 -50,959	 0,070	 -39,124	 75,300	 
37,361	 -50,956	 0,070	 -39,124	 75,400	 
37,437	 -50,954	 0,070	 -39,125	 75,500	 
37,506	 -50,956	 0,070	 -39,121	 75,600	 
37,560	 -50,955	 0,071	 -39,122	 75,700	 
37,600	 -50,954	 0,071	 -39,119	 75,800	 
37,657	 -50,953	 0,071	 -39,121	 75,900	 
37,705	 -50,952	 0,072	 -39,119	 76,000	 
37,741	 -50,951	 0,072	 -39,117	 76,100	 
37,777	 -50,949	 0,072	 -39,117	 76,200	 
37,827	 -50,950	 0,072	 -39,113	 76,300	 
37,900	 -50,951	 0,073	 -39,111	 76,400	 
37,946	 -50,947	 0,073	 -39,113	 76,500	 
37,985	 -50,946	 0,073	 -39,116	 76,600	 
38,023	 -50,947	 0,074	 -39,113	 76,700	 
38,056	 -50,941	 0,074	 -39,107	 76,800	 
38,093	 -50,945	 0,074	 -39,109	 76,900	 
38,134	 -50,942	 0,074	 -39,113	 77,000	 
38,202	 -50,941	 0,074	 -39,109	 77,100	 
38,259	 -50,941	 0,075	 -39,110	 77,200	 
38,302	 -50,939	 0,075	 -39,106	 77,300	 
38,335	 -50,940	 0,075	 -39,108	 77,400	 
38,368	 -50,940	 0,075	 -39,104	 77,500	 
38,432	 -50,936	 0,076	 -39,103	 77,600	 
38,502	 -50,934	 0,076	 -39,107	 77,700	 
38,548	 -50,934	 0,076	 -39,103	 77,800	 
38,590	 -50,935	 0,076	 -39,104	 77,900	 
38,631	 -50,935	 0,077	 -39,105	 78,000	 
38,666	 -50,933	 0,077	 -39,106	 78,100	 
38,702	 -50,933	 0,077	 -39,104	 78,200	 
38,758	 -50,932	 0,078	 -39,098	 78,300	 
38,821	 -50,931	 0,078	 -39,100	 78,400	 
38,873	 -50,927	 0,078	 -39,099	 78,500	 
38,934	 -50,926	 0,079	 -39,102	 78,600	 
39,005	 -50,926	 0,079	 -39,100	 78,700	 
39,053	 -50,926	 0,079	 -39,095	 78,800	 
39,096	 -50,925	 0,080	 -39,095	 78,900	 
39,131	 -50,924	 0,080	 -39,095	 79,000	 
39,175	 -50,925	 0,080	 -39,093	 79,100	 
39,246	 -50,921	 0,080	 -39,095	 79,200	 
39,302	 -50,916	 0,080	 -39,091	 79,300	 
39,345	 -50,919	 0,080	 -39,091	 79,400	 
39,379	 -50,922	 0,081	 -39,090	 79,500	 
39,418	 -50,918	 0,082	 -39,091	 79,600	 
39,460	 -50,914	 0,081	 -39,092	 79,700	 
39,502	 -50,915	 0,082	 -39,089	 79,800	 
39,543	 -50,915	 0,082	 -39,091	 79,900	 
39,576	 -50,916	 0,082	 -39,085	 80,000	 
39,654	 -50,915	 0,082	 -39,090	 80,100	 
39,726	 -50,912	 0,082	 -39,086	 80,200	 
39,772	 -50,912	 0,083	 -39,082	 80,300	 
39,815	 -50,910	 0,084	 -39,086	 80,400	 
39,859	 -50,910	 0,084	 -39,084	 80,500	 
39,895	 -50,908	 0,084	 -39,084	 80,600	 
39,929	 -50,908	 0,084	 -39,082	 80,700	 
39,983	 -50,905	 0,084	 -39,080	 80,800	 
40,041	 -50,905	 0,085	 -39,080	 80,900	 
40,090	 -50,904	 0,085	 -39,081	 81,000	 
40,136	 -50,905	 0,085	 -39,080	 81,100	 
40,163	 -50,903	 0,085	 -39,082	 81,200	 
40,224	 -50,900	 0,086	 -39,080	 81,300	 
40,318	 -50,900	 0,086	 -39,078	 81,400	 
40,395	 -50,897	 0,087	 -39,078	 81,500	 
40,451	 -50,893	 0,087	 -39,078	 81,600	 
40,488	 -50,896	 0,087	 -39,080	 81,700	 
40,532	 -50,894	 0,088	 -39,074	 81,800	 
40,562	 -50,897	 0,088	 -39,072	 81,900	 
40,584	 -50,895	 0,087	 -39,072	 82,000	 
40,615	 -50,893	 0,088	 -39,073	 82,100	 
40,669	 -50,891	 0,089	 -39,074	 82,200	 
40,718	 -50,891	 0,089	 -39,069	 82,300	 
40,762	 -50,890	 0,089	 -39,068	 82,400	 
40,804	 -50,887	 0,089	 -39,069	 82,500	 
40,854	 -50,889	 0,090	 -39,071	 82,600	 
40,919	 -50,889	 0,090	 -39,063	 82,700	 
41,006	 -50,888	 0,090	 -39,065	 82,800	 
41,074	 -50,885	 0,090	 -39,063	 82,900	 
41,122	 -50,885	 0,091	 -39,065	 83,000	 
41,158	 -50,884	 0,091	 -39,065	 83,100	 
41,186	 -50,881	 0,092	 -39,062	 83,200	 
41,213	 -50,882	 0,092	 -39,062	 83,300	 
41,253	 -50,882	 0,092	 -39,062	 83,400	 
41,285	 -50,880	 0,092	 -39,066	 83,500	 
41,332	 -50,880	 0,093	 -39,062	 83,600	 
41,386	 -50,876	 0,093	 -39,055	 83,700	 
41,458	 -50,877	 0,093	 -39,059	 83,800	 
41,526	 -50,879	 0,093	 -39,060	 83,900	 
41,583	 -50,878	 0,094	 -39,058	 84,000	 
41,621	 -50,876	 0,094	 -39,058	 84,100	 
41,653	 -50,875	 0,094	 -39,054	 84,200	 
41,684	 -50,875	 0,095	 -39,054	 84,300	 
41,715	 -50,872	 0,095	 -39,055	 84,400	 
41,735	 -50,872	 0,095	 -39,055	 84,500	 
41,778	 -50,872	 0,096	 -39,054	 84,600	 
41,851	 -50,872	 0,096	 -39,047	 84,700	 
41,921	 -50,866	 0,096	 -39,047	 84,800	 
41,979	 -50,866	 0,097	 -39,051	 84,900	 
42,024	 -50,866	 0,097	 -39,047	 85,000	 
42,060	 -50,865	 0,097	 -39,048	 85,100	 
42,088	 -50,862	 0,097	 -39,046	 85,200	 
42,114	 -50,863	 0,098	 -39,046	 85,300	 
42,142	 -50,862	 0,098	 -39,043	 85,400	 
42,202	 -50,861	 0,098	 -39,045	 85,500	 
42,263	 -50,858	 0,098	 -39,047	 85,600	 
42,306	 -50,860	 0,099	 -39,045	 85,700	 
42,337	 -50,862	 0,099	 -39,043	 85,800	 
42,368	 -50,859	 0,099	 -39,042	 85,900	 
42,399	 -50,855	 0,099	 -39,044	 86,000	 
42,438	 -50,855	 0,100	 -39,043	 86,100	 
42,484	 -50,855	 0,100	 -39,039	 86,200	 
42,543	 -50,853	 0,100	 -39,040	 86,300	 
42,588	 -50,849	 0,101	 -39,038	 86,400	 
42,671	 -50,853	 0,101	 -39,036	 86,500	 
42,731	 -50,850	 0,101	 -39,039	 86,600	 
42,773	 -50,852	 0,102	 -39,036	 86,700	 
42,812	 -50,849	 0,102	 -39,038	 86,800	 
42,850	 -50,848	 0,103	 -39,036	 86,900	 
42,875	 -50,846	 0,103	 -39,035	 87,000	 
42,921	 -50,848	 0,103	 -39,036	 87,100	 
42,984	 -50,846	 0,103	 -39,033	 87,200	 
43,064	 -50,842	 0,104	 -39,036	 87,300	 
43,115	 -50,843	 0,105	 -39,032	 87,400	 
43,159	 -50,841	 0,105	 -39,032	 87,500	 
43,194	 -50,839	 0,105	 -39,032	 87,600	 
43,218	 -50,839	 0,105	 -39,026	 87,700	 
43,245	 -50,838	 0,106	 -39,028	 87,800	 
43,290	 -50,836	 0,106	 -39,025	 87,900	 
43,330	 -50,838	 0,107	 -39,028	 88,000	 
43,371	 -50,837	 0,107	 -39,028	 88,100	 
43,417	 -50,836	 0,107	 -39,025	 88,200	 
43,460	 -50,831	 0,107	 -39,020	 88,300	 
43,493	 -50,833	 0,108	 -39,025	 88,400	 
43,514	 -50,835	 0,108	 -39,025	 88,500	 
43,550	 -50,834	 0,108	 -39,019	 88,600	 
43,581	 -50,828	 0,108	 -39,019	 88,700	 
43,616	 -50,829	 0,109	 -39,019	 88,800	 
43,655	 -50,831	 0,109	 -39,021	 88,900	 
43,708	 -50,829	 0,109	 -39,021	 89,000	 
43,759	 -50,825	 0,109	 -39,019	 89,100	 
43,823	 -50,825	 0,111	 -39,018	 89,200	 
43,878	 -50,825	 0,111	 -39,013	 89,300	 
43,931	 -50,823	 0,111	 -39,016	 89,400	 
43,976	 -50,821	 0,112	 -39,016	 89,500	 
44,004	 -50,820	 0,112	 -39,018	 89,600	 
44,025	 -50,821	 0,113	 -39,012	 89,700	 
44,046	 -50,822	 0,113	 -39,013	 89,800	 
44,069	 -50,820	 0,113	 -39,014	 89,900	 
44,092	 -50,818	 0,113	 -39,014	 90,000	 
44,127	 -50,817	 0,113	 -39,010	 90,100	 
44,219	 -50,818	 0,114	 -39,010	 90,200	 
44,304	 -50,815	 0,114	 -39,010	 90,300	 
44,368	 -50,811	 0,115	 -39,010	 90,400	 
44,404	 -50,814	 0,115	 -39,008	 90,500	 
44,431	 -50,811	 0,116	 -39,007	 90,600	 
44,446	 -50,811	 0,116	 -39,005	 90,700	 
44,469	 -50,809	 0,116	 -39,005	 90,800	 
44,483	 -50,809	 0,117	 -39,005	 90,900	 
44,522	 -50,809	 0,117	 -39,003	 91,000	 
44,548	 -50,806	 0,118	 -39,007	 91,100	 
44,570	 -50,807	 0,118	 -39,002	 91,200	 
44,598	 -50,803	 0,118	 -39,003	 91,300	 
44,655	 -50,803	 0,119	 -39,000	 91,400	 
44,705	 -50,802	 0,120	 -39,002	 91,500	 
44,745	 -50,802	 0,120	 -39,000	 91,600	 
44,776	 -50,801	 0,120	 -38,997	 91,700	 
44,802	 -50,799	 0,121	 -38,997	 91,800	 
44,824	 -50,799	 0,121	 -38,997	 91,900	 
44,847	 -50,799	 0,121	 -38,997	 92,000	 
44,864	 -50,799	 0,122	 -38,997	 92,100	 
44,888	 -50,797	 0,122	 -38,992	 92,200	 
44,927	 -50,795	 0,122	 -38,996	 92,300	 
44,972	 -50,799	 0,123	 -38,994	 92,400	 
45,019	 -50,793	 0,124	 -38,992	 92,500	 
45,058	 -50,792	 0,124	 -38,993	 92,600	 
45,087	 -50,790	 0,125	 -38,989	 92,700	 
45,111	 -50,792	 0,125	 -38,992	 92,800	 
45,146	 -50,792	 0,126	 -38,988	 92,900	 
45,192	 -50,786	 0,126	 -38,989	 93,000	 
45,241	 -50,789	 0,127	 -38,992	 93,100	 
45,275	 -50,787	 0,127	 -38,986	 93,200	 
45,301	 -50,786	 0,128	 -38,988	 93,300	 
45,317	 -50,787	 0,128	 -38,987	 93,400	 
45,333	 -50,784	 0,129	 -38,988	 93,500	 
45,346	 -50,785	 0,129	 -38,985	 93,600	 
45,368	 -50,781	 0,129	 -38,981	 93,700	 
45,407	 -50,782	 0,130	 -38,981	 93,800	 
45,446	 -50,781	 0,131	 -38,986	 93,900	 
45,479	 -50,780	 0,131	 -38,983	 94,000	 
45,518	 -50,779	 0,131	 -38,981	 94,100	 
45,545	 -50,775	 0,132	 -38,979	 94,200	 
45,565	 -50,776	 0,133	 -38,979	 94,300	 
45,582	 -50,774	 0,134	 -38,978	 94,400	 
45,598	 -50,775	 0,134	 -38,979	 94,500	 
45,617	 -50,772	 0,135	 -38,979	 94,600	 
45,637	 -50,772	 0,135	 -38,974	 94,700	 
45,657	 -50,771	 0,136	 -38,971	 94,800	 
45,674	 -50,772	 0,136	 -38,974	 94,900	 
45,699	 -50,767	 0,136	 -38,975	 95,000	 
45,721	 -50,767	 0,137	 -38,975	 95,100	 
45,751	 -50,767	 0,138	 -38,970	 95,200	 
45,773	 -50,767	 0,139	 -38,970	 95,300	 
45,791	 -50,767	 0,139	 -38,972	 95,400	 
45,806	 -50,764	 0,140	 -38,971	 95,500	 
45,819	 -50,763	 0,140	 -38,970	 95,600	 
45,835	 -50,762	 0,141	 -38,970	 95,700	 
45,856	 -50,764	 0,141	 -38,970	 95,800	 
45,883	 -50,762	 0,142	 -38,973	 95,900	 
45,911	 -50,759	 0,143	 -38,966	 96,000	 
45,933	 -50,757	 0,143	 -38,967	 96,100	 
45,960	 -50,756	 0,144	 -38,964	 96,200	 
45,971	 -50,759	 0,145	 -38,963	 96,300	 
45,985	 -50,757	 0,145	 -38,959	 96,400	 
46,005	 -50,753	 0,146	 -38,965	 96,500	 
46,026	 -50,752	 0,146	 -38,966	 96,600	 
46,040	 -50,753	 0,147	 -38,959	 96,700	 
46,054	 -50,750	 0,147	 -38,958	 96,800	 
46,062	 -50,748	 0,148	 -38,961	 96,900	 
46,073	 -50,750	 0,149	 -38,959	 97,000	 
46,081	 -50,750	 0,149	 -38,960	 97,100	 
46,092	 -50,747	 0,150	 -38,956	 97,200	 
46,116	 -50,746	 0,151	 -38,955	 97,300	 
46,135	 -50,746	 0,151	 -38,956	 97,400	 
46,149	 -50,745	 0,152	 -38,956	 97,500	 
46,161	 -50,745	 0,153	 -38,955	 97,600	 
46,170	 -50,743	 0,153	 -38,952	 97,700	 
46,181	 -50,740	 0,154	 -38,951	 97,800	 
46,188	 -50,739	 0,154	 -38,951	 97,900	 
46,209	 -50,741	 0,155	 -38,950	 98,000	 
46,229	 -50,736	 0,156	 -38,952	 98,100	 
46,243	 -50,736	 0,157	 -38,951	 98,200	 
46,254	 -50,739	 0,157	 -38,948	 98,300	 
46,265	 -50,736	 0,158	 -38,950	 98,400	 
46,280	 -50,735	 0,159	 -38,948	 98,500	 
46,304	 -50,734	 0,159	 -38,946	 98,600	 
46,320	 -50,734	 0,160	 -38,944	 98,700	 
46,338	 -50,728	 0,160	 -38,944	 98,800	 
46,354	 -50,730	 0,162	 -38,945	 98,900	 
46,369	 -50,730	 0,162	 -38,944	 99,000	 
46,383	 -50,727	 0,163	 -38,944	 99,100	 
46,393	 -50,727	 0,164	 -38,940	 99,200	 
46,406	 -50,725	 0,165	 -38,943	 99,300	 
46,411	 -50,725	 0,165	 -38,940	 99,400	 
46,413	 -50,727	 0,166	 -38,940	 99,500	 
46,426	 -50,728	 0,167	 -38,935	 99,600	 
46,439	 -50,724	 0,168	 -38,937	 99,700	 
46,453	 -50,722	 0,168	 -38,937	 99,800	 
46,469	 -50,721	 0,169	 -38,935	 99,900	 
46,472	 -50,719	 0,170	 -38,937	 100,000	 
46,476	 -50,717	 0,171	 -38,933	 100,100	 
46,488	 -50,718	 0,171	 -38,931	 100,200	 
46,498	 -50,719	 0,172	 -38,933	 100,300	 
46,501	 -50,718	 0,173	 -38,934	 100,400	 
46,506	 -50,716	 0,173	 -38,935	 100,500	 
46,518	 -50,714	 0,174	 -38,929	 100,600	 
46,531	 -50,714	 0,175	 -38,929	 100,700	 
46,542	 -50,713	 0,176	 -38,929	 100,800	 
46,555	 -50,709	 0,177	 -38,929	 100,900	 
46,570	 -50,713	 0,177	 -38,929	 101,000	 
46,584	 -50,713	 0,178	 -38,920	 101,100	 
46,591	 -50,705	 0,179	 -38,924	 101,200	 
46,602	 -50,706	 0,179	 -38,927	 101,300	 
46,611	 -50,707	 0,181	 -38,925	 101,400	 
46,617	 -50,707	 0,181	 -38,926	 101,500	 
46,622	 -50,703	 0,182	 -38,922	 101,600	 
46,628	 -50,700	 0,183	 -38,923	 101,700	 
46,632	 -50,704	 0,184	 -38,921	 101,800	 
46,640	 -50,702	 0,185	 -38,922	 101,900	 
46,646	 -50,699	 0,185	 -38,922	 102,000	 
46,652	 -50,699	 0,186	 -38,919	 102,100	 
46,663	 -50,700	 0,186	 -38,918	 102,200	 
46,669	 -50,699	 0,187	 -38,915	 102,300	 
46,677	 -50,695	 0,188	 -38,918	 102,400	 
46,685	 -50,694	 0,189	 -38,915	 102,500	 
46,691	 -50,694	 0,190	 -38,915	 102,600	 
46,694	 -50,693	 0,191	 -38,911	 102,700	 
46,701	 -50,691	 0,192	 -38,911	 102,800	 
46,703	 -50,690	 0,192	 -38,909	 102,900	 
46,706	 -50,691	 0,193	 -38,912	 103,000	 
46,712	 -50,690	 0,194	 -38,909	 103,100	 
46,714	 -50,687	 0,195	 -38,910	 103,200	 
46,715	 -50,686	 0,195	 -38,909	 103,300	 
46,715	 -50,687	 0,196	 -38,910	 103,400	 
46,721	 -50,683	 0,197	 -38,910	 103,500	 
46,731	 -50,684	 0,198	 -38,907	 103,600	 
46,736	 -50,683	 0,198	 -38,906	 103,700	 
46,747	 -50,683	 0,199	 -38,905	 103,800	 
46,753	 -50,683	 0,200	 -38,907	 103,900	 
46,768	 -50,683	 0,200	 -38,907	 104,000	 
46,779	 -50,679	 0,201	 -38,904	 104,100	 
46,787	 -50,679	 0,203	 -38,902	 104,200	 
46,792	 -50,677	 0,203	 -38,900	 104,300	 
46,800	 -50,677	 0,204	 -38,903	 104,400	 
46,812	 -50,674	 0,205	 -38,901	 104,500	 
46,822	 -50,674	 0,205	 -38,899	 104,600	 
46,831	 -50,671	 0,207	 -38,898	 104,700	 
46,838	 -50,670	 0,208	 -38,900	 104,800	 
46,845	 -50,670	 0,208	 -38,900	 104,900	 
46,847	 -50,671	 0,209	 -38,897	 105,000	 
46,853	 -50,669	 0,209	 -38,894	 105,100	 
46,855	 -50,668	 0,210	 -38,895	 105,200	 
46,863	 -50,669	 0,211	 -38,896	 105,300	 
46,862	 -50,668	 0,212	 -38,893	 105,400	 
46,866	 -50,665	 0,213	 -38,894	 105,500	 
46,871	 -50,665	 0,214	 -38,892	 105,600	 
46,877	 -50,663	 0,215	 -38,890	 105,700	 
46,883	 -50,662	 0,216	 -38,891	 105,800	 
46,885	 -50,661	 0,217	 -38,890	 105,900	 
46,886	 -50,658	 0,217	 -38,894	 106,000	 
46,890	 -50,662	 0,219	 -38,887	 106,100	 
46,894	 -50,658	 0,219	 -38,887	 106,200	 
46,902	 -50,657	 0,220	 -38,887	 106,300	 
46,905	 -50,656	 0,221	 -38,888	 106,400	 
46,910	 -50,656	 0,222	 -38,886	 106,500	 
46,913	 -50,655	 0,222	 -38,883	 106,600	 
46,921	 -50,655	 0,223	 -38,883	 106,700	 
46,920	 -50,652	 0,224	 -38,885	 106,800	 
46,929	 -50,653	 0,225	 -38,884	 106,900	 
46,932	 -50,651	 0,226	 -38,883	 107,000	 
46,936	 -50,649	 0,227	 -38,878	 107,100	 
46,939	 -50,647	 0,228	 -38,880	 107,200	 
46,940	 -50,647	 0,228	 -38,878	 107,300	 
46,939	 -50,648	 0,230	 -38,880	 107,400	 
46,943	 -50,646	 0,230	 -38,875	 107,500	 
46,945	 -50,644	 0,231	 -38,876	 107,600	 
46,948	 -50,644	 0,232	 -38,874	 107,700	 
46,952	 -50,644	 0,232	 -38,875	 107,800	 
46,956	 -50,640	 0,233	 -38,877	 107,900	 
46,965	 -50,640	 0,234	 -38,876	 108,000	 
46,974	 -50,640	 0,235	 -38,869	 108,100	 
46,976	 -50,638	 0,236	 -38,870	 108,200	 
46,982	 -50,638	 0,237	 -38,873	 108,300	 
46,987	 -50,636	 0,238	 -38,870	 108,400	 
46,988	 -50,639	 0,239	 -38,872	 108,500	 
46,988	 -50,633	 0,240	 -38,867	 108,600	 
46,993	 -50,634	 0,241	 -38,869	 108,700	 
46,999	 -50,633	 0,241	 -38,870	 108,800	 
46,996	 -50,633	 0,242	 -38,865	 108,900	 
47,000	 -50,633	 0,243	 -38,867	 109,000	 
47,000	 -50,630	 0,244	 -38,863	 109,100	 
47,003	 -50,628	 0,245	 -38,863	 109,200	 
47,008	 -50,626	 0,246	 -38,863	 109,300	 
47,013	 -50,628	 0,247	 -38,863	 109,400	 
47,018	 -50,629	 0,247	 -38,865	 109,500	 
47,018	 -50,626	 0,248	 -38,862	 109,600	 
47,019	 -50,625	 0,249	 -38,861	 109,700	 
47,024	 -50,622	 0,249	 -38,861	 109,800	 
47,028	 -50,621	 0,252	 -38,863	 109,900	 
47,031	 -50,621	 0,252	 -38,861	 110,000	 
47,035	 -50,621	 0,253	 -38,856	 110,100	 
47,035	 -50,617	 0,254	 -38,855	 110,200	 
47,034	 -50,618	 0,255	 -38,856	 110,300	 
47,041	 -50,619	 0,256	 -38,856	 110,400	 
47,043	 -50,618	 0,256	 -38,857	 110,500	 
47,046	 -50,618	 0,257	 -38,854	 110,600	 
47,051	 -50,614	 0,258	 -38,854	 110,700	 
47,055	 -50,614	 0,259	 -38,852	 110,800	 
47,060	 -50,614	 0,260	 -38,852	 110,900	 
47,068	 -50,610	 0,261	 -38,851	 111,000	 
47,073	 -50,610	 0,262	 -38,850	 111,100	 
47,081	 -50,610	 0,263	 -38,850	 111,200	 
47,087	 -50,610	 0,264	 -38,850	 111,300	 
47,091	 -50,605	 0,265	 -38,850	 111,400	 
47,095	 -50,607	 0,265	 -38,850	 111,500	 
47,097	 -50,608	 0,267	 -38,844	 111,600	 
47,097	 -50,605	 0,267	 -38,845	 111,700	 
47,096	 -50,602	 0,268	 -38,847	 111,800	 
47,096	 -50,602	 0,269	 -38,846	 111,900	 
47,097	 -50,605	 0,270	 -38,843	 112,000	 
47,097	 -50,600	 0,271	 -38,843	 112,100	 
47,099	 -50,602	 0,271	 -38,842	 112,200	 
47,103	 -50,600	 0,272	 -38,841	 112,300	 
47,103	 -50,596	 0,274	 -38,840	 112,400	 
47,106	 -50,596	 0,275	 -38,838	 112,500	 
47,105	 -50,594	 0,275	 -38,839	 112,600	 
47,106	 -50,595	 0,276	 -38,839	 112,700	 
47,106	 -50,595	 0,277	 -38,835	 112,800	 
47,107	 -50,595	 0,278	 -38,837	 112,900	 
47,105	 -50,588	 0,279	 -38,839	 113,000	 
47,110	 -50,590	 0,280	 -38,833	 113,100	 
47,111	 -50,589	 0,281	 -38,832	 113,200	 
47,113	 -50,589	 0,281	 -38,832	 113,300	 
47,118	 -50,587	 0,282	 -38,834	 113,400	 
47,121	 -50,588	 0,284	 -38,832	 113,500	 
47,126	 -50,586	 0,285	 -38,830	 113,600	 
47,129	 -50,586	 0,285	 -38,828	 113,700	 
47,138	 -50,586	 0,286	 -38,832	 113,800	 
47,144	 -50,583	 0,287	 -38,829	 113,900	 
47,147	 -50,582	 0,288	 -38,830	 114,000	 
47,150	 -50,581	 0,289	 -38,822	 114,100	 
47,150	 -50,581	 0,289	 -38,826	 114,200	 
47,153	 -50,580	 0,291	 -38,824	 114,300	 
47,153	 -50,579	 0,292	 -38,824	 114,400	 
47,151	 -50,574	 0,293	 -38,826	 114,500	 
47,156	 -50,574	 0,293	 -38,823	 114,600	 
47,162	 -50,577	 0,294	 -38,821	 114,700	 
47,164	 -50,574	 0,295	 -38,822	 114,800	 
47,166	 -50,572	 0,296	 -38,821	 114,900	 
47,169	 -50,572	 0,297	 -38,824	 115,000	 
47,168	 -50,572	 0,298	 -38,818	 115,100	 
47,171	 -50,572	 0,299	 -38,819	 115,200	 
47,175	 -50,566	 0,300	 -38,819	 115,300	 
47,179	 -50,566	 0,301	 -38,821	 115,400	 
47,180	 -50,566	 0,302	 -38,818	 115,500	 
47,182	 -50,566	 0,302	 -38,815	 115,600	 
47,180	 -50,561	 0,303	 -38,812	 115,700	 
47,184	 -50,563	 0,305	 -38,814	 115,800	 
47,183	 -50,563	 0,306	 -38,817	 115,900	 
47,186	 -50,561	 0,306	 -38,815	 116,000	 
47,184	 -50,558	 0,307	 -38,813	 116,100	 
47,188	 -50,560	 0,309	 -38,811	 116,200	 
47,191	 -50,559	 0,309	 -38,808	 116,300	 
47,192	 -50,556	 0,310	 -38,809	 116,400	 
47,186	 -50,558	 0,311	 -38,808	 116,500	 
47,192	 -50,553	 0,312	 -38,807	 116,600	 
47,193	 -50,558	 0,312	 -38,804	 116,700	 
47,195	 -50,552	 0,313	 -38,806	 116,800	 
47,196	 -50,552	 0,315	 -38,807	 116,900	 
47,200	 -50,551	 0,316	 -38,799	 117,000	 
47,197	 -50,552	 0,317	 -38,800	 117,100	 
47,199	 -50,548	 0,318	 -38,799	 117,200	 
47,196	 -50,549	 0,318	 -38,804	 117,300	 
47,199	 -50,546	 0,319	 -38,802	 117,400	 
47,202	 -50,551	 0,320	 -38,799	 117,500	 
47,201	 -50,544	 0,321	 -38,799	 117,600	 
47,205	 -50,544	 0,322	 -38,802	 117,700	 
47,207	 -50,542	 0,323	 -38,800	 117,800	 
47,207	 -50,543	 0,324	 -38,799	 117,900	 
47,207	 -50,541	 0,324	 -38,796	 118,000	 
47,212	 -50,539	 0,325	 -38,797	 118,100	 
47,212	 -50,540	 0,326	 -38,796	 118,200	 
47,214	 -50,540	 0,327	 -38,795	 118,300	 
47,215	 -50,535	 0,328	 -38,796	 118,400	 
47,217	 -50,535	 0,329	 -38,793	 118,500	 
47,218	 -50,537	 0,330	 -38,791	 118,600	 
47,219	 -50,535	 0,331	 -38,792	 118,700	 
47,219	 -50,530	 0,332	 -38,792	 118,800	 
47,221	 -50,530	 0,333	 -38,793	 118,900	 
47,226	 -50,530	 0,334	 -38,788	 119,000	 
47,228	 -50,530	 0,335	 -38,787	 119,100	 
47,235	 -50,528	 0,336	 -38,787	 119,200	 
47,235	 -50,528	 0,337	 -38,788	 119,300	 
47,241	 -50,528	 0,337	 -38,783	 119,400	 
47,245	 -50,528	 0,338	 -38,783	 119,500	 
47,246	 -50,521	 0,339	 -38,782	 119,600	 
47,247	 -50,521	 0,340	 -38,785	 119,700	 
47,248	 -50,524	 0,341	 -38,784	 119,800	 
47,251	 -50,523	 0,342	 -38,780	 119,900	 
47,248	 -50,519	 0,343	 -38,780	 120,000	 
47,251	 -50,521	 0,344	 -38,780	 120,100	 
47,247	 -50,520	 0,345	 -38,780	 120,200	 
47,250	 -50,518	 0,346	 -38,776	 120,300	 
47,247	 -50,518	 0,346	 -38,781	 120,400	 
47,250	 -50,515	 0,348	 -38,775	 120,500	 
47,250	 -50,515	 0,348	 -38,777	 120,600	 
47,251	 -50,511	 0,349	 -38,777	 120,700	 
47,258	 -50,513	 0,350	 -38,780	 120,800	 
47,259	 -50,513	 0,351	 -38,777	 120,900	 
47,264	 -50,512	 0,352	 -38,773	 121,000	 
47,263	 -50,510	 0,353	 -38,773	 121,100	 
47,267	 -50,508	 0,354	 -38,775	 121,200	 
47,272	 -50,508	 0,355	 -38,774	 121,300	 
47,274	 -50,508	 0,356	 -38,774	 121,400	 
47,276	 -50,507	 0,357	 -38,768	 121,500	 
47,281	 -50,506	 0,358	 -38,773	 121,600	 
47,282	 -50,504	 0,358	 -38,768	 121,700	 
47,287	 -50,501	 0,359	 -38,768	 121,800	 
47,284	 -50,501	 0,360	 -38,773	 121,900	 
47,288	 -50,497	 0,362	 -38,769	 122,000	 
47,288	 -50,500	 0,363	 -38,765	 122,100	 
47,289	 -50,499	 0,363	 -38,764	 122,200	 
47,286	 -50,498	 0,364	 -38,764	 122,300	 
47,285	 -50,496	 0,365	 -38,767	 122,400	 
47,287	 -50,496	 0,366	 -38,762	 122,500	 
47,289	 -50,494	 0,367	 -38,762	 122,600	 
47,285	 -50,492	 0,367	 -38,762	 122,700	 
47,283	 -50,491	 0,369	 -38,763	 122,800	 
47,281	 -50,492	 0,370	 -38,762	 122,900	 
47,281	 -50,493	 0,370	 -38,758	 123,000	 
47,283	 -50,488	 0,371	 -38,758	 123,100	 
47,283	 -50,486	 0,373	 -38,759	 123,200	 
47,287	 -50,490	 0,373	 -38,758	 123,300	 
47,291	 -50,488	 0,374	 -38,758	 123,400	 
47,291	 -50,486	 0,375	 -38,755	 123,500	 
47,294	 -50,483	 0,376	 -38,755	 123,600	 
47,294	 -50,486	 0,377	 -38,753	 123,700	 
47,291	 -50,485	 0,377	 -38,752	 123,800	 
47,292	 -50,480	 0,379	 -38,753	 123,900	 
47,294	 -50,478	 0,379	 -38,748	 124,000	 
47,297	 -50,481	 0,380	 -38,751	 124,100	 
47,297	 -50,480	 0,381	 -38,749	 124,200	 
47,298	 -50,478	 0,382	 -38,749	 124,300	 
47,301	 -50,480	 0,383	 -38,751	 124,400	 
47,307	 -50,478	 0,384	 -38,745	 124,500	 
47,307	 -50,476	 0,385	 -38,745	 124,600	 
47,315	 -50,475	 0,386	 -38,745	 124,700	 
47,317	 -50,471	 0,386	 -38,747	 124,800	 
47,320	 -50,471	 0,387	 -38,749	 124,900	 
47,322	 -50,470	 0,388	 -38,742	 125,000	 
47,324	 -50,463	 0,389	 -38,745	 125,100	 
47,324	 -50,469	 0,391	 -38,744	 125,200	 
47,324	 -50,468	 0,391	 -38,742	 125,300	 
47,328	 -50,468	 0,392	 -38,741	 125,400	 
47,330	 -50,464	 0,393	 -38,740	 125,500	 
47,329	 -50,463	 0,394	 -38,738	 125,600	 
47,330	 -50,464	 0,395	 -38,738	 125,700	 
47,337	 -50,461	 0,396	 -38,739	 125,800	 
47,346	 -50,461	 0,397	 -38,742	 125,900	 
47,351	 -50,459	 0,398	 -38,734	 126,000	 
47,351	 -50,456	 0,399	 -38,735	 126,100	 
47,353	 -50,459	 0,400	 -38,734	 126,200	 
47,356	 -50,456	 0,401	 -38,735	 126,300	 
47,356	 -50,456	 0,402	 -38,736	 126,400	 
47,358	 -50,456	 0,403	 -38,731	 126,500	 
47,357	 -50,451	 0,403	 -38,730	 126,600	 
47,359	 -50,454	 0,405	 -38,731	 126,700	 
47,358	 -50,453	 0,405	 -38,731	 126,800	 
47,361	 -50,454	 0,406	 -38,731	 126,900	 
47,364	 -50,448	 0,407	 -38,729	 127,000	 
47,361	 -50,448	 0,408	 -38,725	 127,100	 
47,358	 -50,451	 0,410	 -38,727	 127,200	 
47,359	 -50,447	 0,410	 -38,725	 127,300	 
47,359	 -50,445	 0,411	 -38,729	 127,400	 
47,359	 -50,445	 0,412	 -38,728	 127,500	 
47,361	 -50,447	 0,413	 -38,723	 127,600	 
47,362	 -50,445	 0,414	 -38,723	 127,700	 
47,363	 -50,442	 0,414	 -38,723	 127,800	 
47,362	 -50,440	 0,415	 -38,723	 127,900	 
47,364	 -50,440	 0,416	 -38,720	 128,000	 
47,363	 -50,440	 0,417	 -38,720	 128,100	 
47,368	 -50,438	 0,418	 -38,721	 128,200	 
47,370	 -50,438	 0,419	 -38,721	 128,300	 
47,371	 -50,439	 0,420	 -38,720	 128,400	 
47,369	 -50,438	 0,421	 -38,714	 128,500	 
47,373	 -50,436	 0,422	 -38,716	 128,600	 
47,379	 -50,435	 0,423	 -38,715	 128,700	 
47,382	 -50,434	 0,424	 -38,717	 128,800	 
47,385	 -50,433	 0,425	 -38,716	 128,900	 
47,384	 -50,427	 0,426	 -38,714	 129,000	 
47,384	 -50,427	 0,427	 -38,712	 129,100	 
47,386	 -50,429	 0,427	 -38,711	 129,200	 
47,384	 -50,427	 0,429	 -38,712	 129,300	 
47,380	 -50,424	 0,430	 -38,712	 129,400	 
47,386	 -50,424	 0,431	 -38,709	 129,500	 
47,389	 -50,423	 0,431	 -38,707	 129,600	 
47,390	 -50,424	 0,432	 -38,710	 129,700	 
47,393	 -50,421	 0,433	 -38,708	 129,800	 
47,395	 -50,420	 0,434	 -38,709	 129,900	 
47,393	 -50,420	 0,435	 -38,704	 130,000	 
47,394	 -50,420	 0,435	 -38,704	 130,100	 
47,394	 -50,418	 0,437	 -38,707	 130,200	 
47,397	 -50,417	 0,438	 -38,705	 130,300	 
47,390	 -50,417	 0,439	 -38,703	 130,400	 
47,393	 -50,414	 0,440	 -38,702	 130,500	 
47,398	 -50,412	 0,441	 -38,702	 130,600	 
47,395	 -50,415	 0,441	 -38,702	 130,700	 
47,390	 -50,414	 0,442	 -38,700	 130,800	 
47,392	 -50,409	 0,443	 -38,702	 130,900	 
47,393	 -50,410	 0,444	 -38,699	 131,000	 
47,397	 -50,409	 0,445	 -38,695	 131,100	 
47,399	 -50,410	 0,447	 -38,695	 131,200	 
47,399	 -50,405	 0,447	 -38,697	 131,300	 
47,399	 -50,405	 0,448	 -38,698	 131,400	 
47,399	 -50,405	 0,448	 -38,694	 131,500	 
47,401	 -50,405	 0,449	 -38,694	 131,600	 
47,406	 -50,403	 0,451	 -38,692	 131,700	 
47,408	 -50,403	 0,451	 -38,695	 131,800	 
47,410	 -50,403	 0,452	 -38,692	 131,900	 
47,421	 -50,401	 0,453	 -38,688	 132,000	 
47,425	 -50,398	 0,454	 -38,688	 132,100	 
47,430	 -50,401	 0,455	 -38,692	 132,200	 
47,438	 -50,400	 0,455	 -38,690	 132,300	 
47,437	 -50,398	 0,457	 -38,689	 132,400	 
47,438	 -50,394	 0,457	 -38,685	 132,500	 
47,443	 -50,396	 0,458	 -38,685	 132,600	 
47,443	 -50,395	 0,460	 -38,686	 132,700	 
47,443	 -50,391	 0,461	 -38,685	 132,800	 
47,442	 -50,390	 0,461	 -38,686	 132,900	 
47,447	 -50,390	 0,463	 -38,681	 133,000	 
47,449	 -50,390	 0,463	 -38,683	 133,100	 
47,449	 -50,388	 0,464	 -38,680	 133,200	 
47,449	 -50,385	 0,465	 -38,681	 133,300	 
47,451	 -50,385	 0,466	 -38,674	 133,400	 
47,453	 -50,384	 0,467	 -38,674	 133,500	 
47,454	 -50,383	 0,468	 -38,674	 133,600	 
47,451	 -50,382	 0,469	 -38,674	 133,700	 
47,454	 -50,381	 0,469	 -38,674	 133,800	 
47,455	 -50,383	 0,471	 -38,667	 133,900	 
47,456	 -50,380	 0,471	 -38,669	 134,000	 
47,449	 -50,379	 0,472	 -38,674	 134,100	 
47,449	 -50,376	 0,473	 -38,670	 134,200	 
47,449	 -50,376	 0,474	 -38,667	 134,300	 
47,443	 -50,376	 0,475	 -38,665	 134,400	 
47,449	 -50,376	 0,476	 -38,664	 134,500	 
47,447	 -50,376	 0,477	 -38,667	 134,600	 
47,450	 -50,374	 0,478	 -38,665	 134,700	 
47,449	 -50,373	 0,478	 -38,668	 134,800	 
47,451	 -50,372	 0,480	 -38,661	 134,900	 
47,454	 -50,369	 0,481	 -38,663	 135,000	 
47,454	 -50,369	 0,482	 -38,662	 135,100	 
47,454	 -50,369	 0,483	 -38,664	 135,200	 
47,454	 -50,368	 0,483	 -38,665	 135,300	 
47,457	 -50,366	 0,484	 -38,660	 135,400	 
47,457	 -50,365	 0,485	 -38,659	 135,500	 
47,461	 -50,365	 0,486	 -38,660	 135,600	 
47,461	 -50,365	 0,487	 -38,661	 135,700	 
47,465	 -50,361	 0,488	 -38,661	 135,800	 
47,470	 -50,365	 0,488	 -38,654	 135,900	 
47,472	 -50,362	 0,489	 -38,657	 136,000	 
47,480	 -50,359	 0,490	 -38,658	 136,100	 
47,480	 -50,359	 0,491	 -38,656	 136,200	 
47,480	 -50,359	 0,491	 -38,655	 136,300	 
47,484	 -50,355	 0,493	 -38,650	 136,400	 
47,483	 -50,352	 0,494	 -38,655	 136,500	 
47,483	 -50,357	 0,495	 -38,651	 136,600	 
47,484	 -50,353	 0,495	 -38,650	 136,700	 
47,482	 -50,352	 0,497	 -38,649	 136,800	 
47,487	 -50,351	 0,498	 -38,648	 136,900	 
47,487	 -50,351	 0,498	 -38,648	 137,000	 
47,487	 -50,349	 0,499	 -38,648	 137,100	 
47,492	 -50,347	 0,500	 -38,648	 137,200	 
47,493	 -50,348	 0,501	 -38,648	 137,300	 
47,492	 -50,347	 0,502	 -38,644	 137,400	 
47,494	 -50,346	 0,502	 -38,642	 137,500	 
47,500	 -50,345	 0,503	 -38,643	 137,600	 
47,502	 -50,345	 0,504	 -38,644	 137,700	 
47,503	 -50,343	 0,505	 -38,642	 137,800	 
47,502	 -50,345	 0,506	 -38,639	 137,900	 
47,508	 -50,339	 0,507	 -38,636	 138,000	 
47,511	 -50,339	 0,508	 -38,641	 138,100	 
47,514	 -50,339	 0,509	 -38,641	 138,200	 
47,518	 -50,338	 0,510	 -38,638	 138,300	 
47,521	 -50,338	 0,510	 -38,635	 138,400	 
47,523	 -50,335	 0,512	 -38,637	 138,500	 
47,525	 -50,335	 0,512	 -38,634	 138,600	 
47,529	 -50,335	 0,513	 -38,636	 138,700	 
47,528	 -50,331	 0,515	 -38,637	 138,800	 
47,535	 -50,332	 0,515	 -38,633	 138,900	 
47,533	 -50,334	 0,516	 -38,633	 139,000	 
47,536	 -50,333	 0,517	 -38,632	 139,100	 
47,533	 -50,331	 0,518	 -38,635	 139,200	 
47,536	 -50,331	 0,519	 -38,634	 139,300	 
47,535	 -50,331	 0,520	 -38,629	 139,400	 
47,537	 -50,327	 0,521	 -38,628	 139,500	 
47,537	 -50,328	 0,522	 -38,631	 139,600	 
47,546	 -50,321	 0,522	 -38,629	 139,700	 
47,546	 -50,320	 0,523	 -38,626	 139,800	 
47,549	 -50,320	 0,524	 -38,624	 139,900	 
47,559	 -50,320	 0,526	 -38,625	 140,000	 
47,566	 -50,319	 0,526	 -38,624	 140,100	 
47,570	 -50,321	 0,527	 -38,624	 140,200	 
47,572	 -50,318	 0,528	 -38,623	 140,300	 
47,570	 -50,317	 0,529	 -38,619	 140,400	 
47,572	 -50,317	 0,530	 -38,620	 140,500	 
47,568	 -50,315	 0,531	 -38,619	 140,600	 
47,566	 -50,313	 0,532	 -38,619	 140,700	 
47,570	 -50,313	 0,533	 -38,618	 140,800	 
47,576	 -50,313	 0,534	 -38,616	 140,900	 
47,581	 -50,311	 0,535	 -38,615	 141,000	 
47,576	 -50,310	 0,536	 -38,616	 141,100	 
47,581	 -50,307	 0,537	 -38,618	 141,200	 
47,579	 -50,306	 0,538	 -38,618	 141,300	 
47,581	 -50,307	 0,539	 -38,614	 141,400	 
47,581	 -50,306	 0,539	 -38,616	 141,500	 
47,583	 -50,305	 0,541	 -38,616	 141,600	 
47,582	 -50,307	 0,541	 -38,614	 141,700	 
47,585	 -50,304	 0,542	 -38,612	 141,800	 
47,587	 -50,300	 0,544	 -38,606	 141,900	 
47,586	 -50,302	 0,544	 -38,607	 142,000	 
47,586	 -50,301	 0,546	 -38,609	 142,100	 
47,587	 -50,301	 0,546	 -38,607	 142,200	 
47,583	 -50,296	 0,547	 -38,609	 142,300	 
47,583	 -50,295	 0,548	 -38,607	 142,400	 
47,580	 -50,297	 0,549	 -38,605	 142,500	 
47,585	 -50,296	 0,550	 -38,604	 142,600	 
47,581	 -50,295	 0,551	 -38,607	 142,700	 
47,585	 -50,294	 0,552	 -38,604	 142,800	 
47,584	 -50,292	 0,552	 -38,602	 142,900	 
47,589	 -50,292	 0,553	 -38,602	 143,000	 
47,588	 -50,291	 0,554	 -38,602	 143,100	 
47,592	 -50,289	 0,555	 -38,602	 143,200	 
47,593	 -50,288	 0,556	 -38,601	 143,300	 
47,598	 -50,288	 0,557	 -38,598	 143,400	 
47,597	 -50,285	 0,558	 -38,602	 143,500	 
47,600	 -50,285	 0,558	 -38,599	 143,600	 
47,598	 -50,285	 0,560	 -38,598	 143,700	 
47,603	 -50,285	 0,560	 -38,598	 143,800	 
47,606	 -50,280	 0,561	 -38,595	 143,900	 
47,611	 -50,280	 0,563	 -38,593	 144,000	 
47,614	 -50,280	 0,564	 -38,593	 144,100	 
47,611	 -50,277	 0,565	 -38,593	 144,200	 
47,614	 -50,279	 0,565	 -38,594	 144,300	 
47,614	 -50,279	 0,566	 -38,590	 144,400	 
47,618	 -50,276	 0,567	 -38,590	 144,500	 
47,614	 -50,275	 0,568	 -38,586	 144,600	 
47,622	 -50,272	 0,569	 -38,590	 144,700	 
47,620	 -50,274	 0,570	 -38,589	 144,800	 
47,625	 -50,272	 0,571	 -38,586	 144,900	 
47,626	 -50,268	 0,572	 -38,586	 145,000	 
47,631	 -50,271	 0,573	 -38,587	 145,100	 
47,635	 -50,271	 0,574	 -38,590	 145,200	 
47,635	 -50,268	 0,575	 -38,586	 145,300	 
47,636	 -50,268	 0,576	 -38,582	 145,400	 
47,637	 -50,265	 0,576	 -38,582	 145,500	 
47,634	 -50,267	 0,577	 -38,584	 145,600	 
47,634	 -50,264	 0,578	 -38,578	 145,700	 
47,634	 -50,258	 0,579	 -38,582	 145,800	 
47,636	 -50,264	 0,580	 -38,577	 145,900	 
47,635	 -50,264	 0,581	 -38,576	 146,000	 
47,641	 -50,260	 0,582	 -38,578	 146,100	 
47,641	 -50,260	 0,583	 -38,580	 146,200	 
47,643	 -50,261	 0,584	 -38,579	 146,300	 
47,639	 -50,260	 0,585	 -38,575	 146,400	 
47,640	 -50,257	 0,586	 -38,573	 146,500	 
47,649	 -50,257	 0,587	 -38,577	 146,600	 
47,659	 -50,253	 0,587	 -38,576	 146,700	 
47,660	 -50,254	 0,588	 -38,574	 146,800	 
47,664	 -50,252	 0,589	 -38,570	 146,900	 
47,663	 -50,253	 0,591	 -38,572	 147,000	 
47,666	 -50,251	 0,591	 -38,572	 147,100	 
47,668	 -50,251	 0,592	 -38,570	 147,200	 
47,671	 -50,248	 0,593	 -38,569	 147,300	 
47,673	 -50,247	 0,594	 -38,569	 147,400	 
47,675	 -50,246	 0,595	 -38,569	 147,500	 
47,679	 -50,242	 0,596	 -38,565	 147,600	 
47,683	 -50,243	 0,597	 -38,566	 147,700	 
47,679	 -50,243	 0,598	 -38,568	 147,800	 
47,679	 -50,242	 0,599	 -38,563	 147,900	 
47,679	 -50,241	 0,600	 -38,562	 148,000	 
47,679	 -50,238	 0,600	 -38,563	 148,100	 
47,679	 -50,239	 0,603	 -38,563	 148,200	 
47,682	 -50,239	 0,603	 -38,561	 148,300	 
47,677	 -50,236	 0,604	 -38,560	 148,400	 
47,677	 -50,236	 0,605	 -38,559	 148,500	 
47,678	 -50,234	 0,605	 -38,560	 148,600	 
47,679	 -50,236	 0,606	 -38,558	 148,700	 
47,681	 -50,236	 0,607	 -38,558	 148,800	 
47,682	 -50,229	 0,608	 -38,556	 148,900	 
47,682	 -50,232	 0,609	 -38,557	 149,000	 
47,681	 -50,232	 0,610	 -38,554	 149,100	 
47,686	 -50,229	 0,610	 -38,554	 149,200	 
47,684	 -50,229	 0,612	 -38,553	 149,300	 
47,684	 -50,229	 0,613	 -38,553	 149,400	 
47,677	 -50,229	 0,613	 -38,552	 149,500	 
47,685	 -50,226	 0,614	 -38,552	 149,600	 
47,686	 -50,224	 0,616	 -38,556	 149,700	 
47,692	 -50,223	 0,617	 -38,553	 149,800	 
47,695	 -50,229	 0,616	 -38,547	 149,900	 
47,695	 -50,221	 0,618	 -38,548	 150,000	 
47,697	 -50,221	 0,619	 -38,547	 150,100	 
47,699	 -50,218	 0,620	 -38,549	 150,200	 
47,706	 -50,218	 0,621	 -38,546	 150,300	 
47,706	 -50,214	 0,622	 -38,545	 150,400	 
47,712	 -50,218	 0,623	 -38,545	 150,500	 
47,712	 -50,216	 0,623	 -38,546	 150,600	 
47,712	 -50,214	 0,625	 -38,544	 150,700	 
47,714	 -50,214	 0,626	 -38,539	 150,800	 
47,717	 -50,213	 0,627	 -38,543	 150,900	 
47,725	 -50,214	 0,628	 -38,542	 151,000	 
47,726	 -50,211	 0,629	 -38,540	 151,100	 
47,733	 -50,208	 0,629	 -38,543	 151,200	 
47,730	 -50,213	 0,630	 -38,540	 151,300	 
47,730	 -50,207	 0,631	 -38,537	 151,400	 
47,728	 -50,207	 0,632	 -38,537	 151,500	 
47,731	 -50,206	 0,632	 -38,539	 151,600	 
47,729	 -50,206	 0,634	 -38,539	 151,700	 
47,730	 -50,204	 0,635	 -38,534	 151,800	 
47,731	 -50,204	 0,635	 -38,532	 151,900	 
47,726	 -50,204	 0,637	 -38,534	 152,000	 
47,731	 -50,199	 0,638	 -38,532	 152,100	 
47,734	 -50,200	 0,638	 -38,534	 152,200	 
47,740	 -50,199	 0,639	 -38,528	 152,300	 
47,740	 -50,194	 0,641	 -38,529	 152,400	 
47,745	 -50,194	 0,641	 -38,531	 152,500	 
47,746	 -50,199	 0,642	 -38,531	 152,600	 
47,749	 -50,193	 0,643	 -38,529	 152,700	 
47,750	 -50,192	 0,644	 -38,523	 152,800	 
47,756	 -50,192	 0,645	 -38,526	 152,900	 
47,756	 -50,193	 0,646	 -38,524	 153,000	 
47,756	 -50,190	 0,646	 -38,525	 153,100	 
47,756	 -50,185	 0,647	 -38,525	 153,200	 
47,760	 -50,187	 0,648	 -38,521	 153,300	 
47,759	 -50,190	 0,649	 -38,519	 153,400	 
47,759	 -50,189	 0,650	 -38,522	 153,500	 
47,760	 -50,183	 0,652	 -38,522	 153,600	 
47,762	 -50,184	 0,652	 -38,519	 153,700	 
47,753	 -50,184	 0,653	 -38,517	 153,800	 
47,762	 -50,182	 0,654	 -38,517	 153,900	 
47,763	 -50,180	 0,655	 -38,517	 154,000	 
47,763	 -50,179	 0,656	 -38,518	 154,100	 
47,762	 -50,179	 0,657	 -38,516	 154,200	 
47,762	 -50,179	 0,658	 -38,514	 154,300	 
47,762	 -50,177	 0,659	 -38,515	 154,400	 
47,768	 -50,177	 0,660	 -38,515	 154,500	 
47,766	 -50,177	 0,660	 -38,513	 154,600	 
47,770	 -50,176	 0,661	 -38,515	 154,700	 
47,769	 -50,174	 0,662	 -38,510	 154,800	 
47,769	 -50,174	 0,663	 -38,510	 154,900	 
47,765	 -50,176	 0,663	 -38,510	 155,000	 
47,767	 -50,170	 0,664	 -38,510	 155,100	 
47,765	 -50,171	 0,666	 -38,513	 155,200	 
47,773	 -50,169	 0,666	 -38,508	 155,300	 
47,782	 -50,170	 0,667	 -38,508	 155,400	 
47,785	 -50,169	 0,668	 -38,508	 155,500	 
47,791	 -50,165	 0,669	 -38,506	 155,600	 
47,800	 -50,167	 0,670	 -38,509	 155,700	 
47,800	 -50,165	 0,671	 -38,501	 155,800	 
47,809	 -50,163	 0,672	 -38,503	 155,900	 
47,811	 -50,160	 0,673	 -38,503	 156,000	 
47,817	 -50,163	 0,674	 -38,505	 156,100	 
47,822	 -50,159	 0,675	 -38,500	 156,200	 
47,822	 -50,158	 0,676	 -38,499	 156,300	 
47,829	 -50,156	 0,677	 -38,498	 156,400	 
47,833	 -50,155	 0,678	 -38,499	 156,500	 
47,835	 -50,156	 0,679	 -38,498	 156,600	 
47,838	 -50,152	 0,680	 -38,501	 156,700	 
47,837	 -50,151	 0,681	 -38,498	 156,800	 
47,839	 -50,152	 0,682	 -38,494	 156,900	 
47,839	 -50,153	 0,683	 -38,494	 157,000	 
47,840	 -50,149	 0,686	 -38,498	 157,100	 
47,842	 -50,149	 0,687	 -38,495	 157,200	 
47,842	 -50,149	 0,688	 -38,490	 157,300	 
47,842	 -50,149	 0,688	 -38,494	 157,400	 
47,839	 -50,147	 0,695	 -38,492	 157,500	 
47,842	 -50,145	 0,694	 -38,492	 157,600	 
47,842	 -50,144	 0,714	 -38,490	 157,700	 
47,844	 -50,142	 0,734	 -38,487	 157,800	 
47,847	 -50,141	 0,738	 -38,488	 157,900	 
47,849	 -50,140	 0,740	 -38,489	 158,000	 
47,849	 -50,139	 0,741	 -38,487	 158,100	 
47,850	 -50,137	 0,742	 -38,490	 158,200	 
47,844	 -50,135	 0,743	 -38,485	 158,300	 
47,844	 -50,137	 0,744	 -38,485	 158,400	 
47,845	 -50,136	 0,744	 -38,485	 158,500	 
47,849	 -50,133	 0,746	 -38,485	 158,600	 
47,850	 -50,133	 0,746	 -38,487	 158,700	 
47,851	 -50,135	 0,747	 -38,481	 158,800	 
47,856	 -50,133	 0,749	 -38,479	 158,900	 
47,860	 -50,130	 0,750	 -38,482	 159,000	 
47,859	 -50,130	 0,750	 -38,482	 159,100	 
47,861	 -50,131	 0,751	 -38,482	 159,200	 
47,861	 -50,130	 0,752	 -38,475	 159,300	 
47,859	 -50,124	 0,753	 -38,477	 159,400	 
47,861	 -50,128	 0,754	 -38,478	 159,500	 
47,866	 -50,127	 0,755	 -38,477	 159,600	 
47,866	 -50,128	 0,756	 -38,477	 159,700	 
47,866	 -50,123	 0,757	 -38,471	 159,800	 
47,864	 -50,123	 0,758	 -38,473	 159,900	 
47,873	 -50,122	 0,759	 -38,472	 160,000	 
47,870	 -50,121	 0,759	 -38,472	 160,100	 
47,869	 -50,118	 0,760	 -38,473	 160,200	 
47,870	 -50,116	 0,761	 -38,469	 160,300	 
47,872	 -50,118	 0,762	 -38,467	 160,400	 
47,872	 -50,114	 0,763	 -38,470	 160,500	 
47,874	 -50,114	 0,764	 -38,470	 160,600	 
47,874	 -50,112	 0,765	 -38,468	 160,700	 
47,877	 -50,113	 0,766	 -38,462	 160,800	 
47,880	 -50,112	 0,767	 -38,464	 160,900	 
47,877	 -50,110	 0,768	 -38,466	 161,000	 
47,879	 -50,109	 0,768	 -38,464	 161,100	 
47,877	 -50,112	 0,770	 -38,465	 161,200	 
47,874	 -50,108	 0,770	 -38,462	 161,300	 
47,867	 -50,107	 0,771	 -38,465	 161,400	 
47,866	 -50,108	 0,772	 -38,462	 161,500	 
47,864	 -50,105	 0,773	 -38,460	 161,600	 
47,866	 -50,104	 0,774	 -38,461	 161,700	 
47,864	 -50,104	 0,774	 -38,458	 161,800	 
47,871	 -50,103	 0,775	 -38,459	 161,900	 
47,874	 -50,102	 0,776	 -38,455	 162,000	 
47,877	 -50,101	 0,777	 -38,458	 162,100	 
47,887	 -50,097	 0,778	 -38,453	 162,200	 
47,883	 -50,097	 0,779	 -38,453	 162,300	 
47,890	 -50,100	 0,780	 -38,453	 162,400	 
47,890	 -50,095	 0,780	 -38,453	 162,500	 
47,892	 -50,096	 0,781	 -38,452	 162,600	 
47,891	 -50,095	 0,782	 -38,453	 162,700	 
47,894	 -50,094	 0,783	 -38,450	 162,800	 
47,895	 -50,093	 0,784	 -38,447	 162,900	 
47,899	 -50,091	 0,785	 -38,451	 163,000	 
47,896	 -50,093	 0,785	 -38,451	 163,100	 
47,897	 -50,092	 0,786	 -38,450	 163,200	 
47,899	 -50,086	 0,787	 -38,446	 163,300	 
47,899	 -50,090	 0,788	 -38,447	 163,400	 
47,903	 -50,090	 0,789	 -38,447	 163,500	 
47,902	 -50,088	 0,789	 -38,447	 163,600	 
47,901	 -50,084	 0,790	 -38,447	 163,700	 
47,899	 -50,088	 0,791	 -38,443	 163,800	 
47,904	 -50,081	 0,792	 -38,442	 163,900	 
47,908	 -50,084	 0,793	 -38,441	 164,000	 
47,910	 -50,080	 0,794	 -38,443	 164,100	 
47,895	 -50,081	 0,794	 -38,444	 164,200	 
47,885	 -50,079	 0,795	 -38,439	 164,300	 
47,883	 -50,079	 0,796	 -38,438	 164,400	 
47,888	 -50,079	 0,797	 -38,440	 164,500	 
47,899	 -50,075	 0,798	 -38,438	 164,600	 
47,910	 -50,079	 0,799	 -38,437	 164,700	 
47,940	 -50,074	 0,799	 -38,431	 164,800	 
47,955	 -50,070	 0,800	 -38,437	 164,900	 
47,966	 -50,070	 0,802	 -38,434	 165,000	 
47,976	 -50,072	 0,675	 -38,431	 165,100	 
47,986	 -50,070	 0,520	 -38,433	 165,200	 
47,987	 -50,067	 0,525	 -38,433	 165,300	 
47,994	 -50,068	 0,528	 -38,431	 165,400	 
47,993	 -50,070	 0,464	 -38,430	 165,500	 
47,996	 -50,067	 0,157	 -38,430	 165,600	 
47,999	 -50,063	 -0,355	 -38,431	 165,700	 
47,995	 -50,067	 -0,411	 -38,427	 165,800	 
47,991	 -50,067	 -0,441	 -38,426	 165,900	 
47,993	 -50,060	 -0,440	 -38,427	 166,000	 
47,994	 -50,060	 -0,403	 -38,426	 166,100	 
47,993	 -50,060	 -0,419	 -38,429	 166,200	 
47,995	 -50,059	 -0,040	 -38,420	 166,300	 
47,999	 -50,056	 -0,013	 -38,424	 166,400	 
47,995	 -50,055	 -0,013	 -38,423	 166,500	 
47,995	 -50,058	 -0,013	 -38,422	 166,600	 
47,995	 -50,056	 -0,013	 -38,422	 166,700	 
47,995	 -50,053	 -0,013	 -38,418	 166,800	 
47,991	 -50,051	 -0,013	 -38,419	 166,900	 
47,991	 -50,053	 -0,013	 -38,420	 167,000	 
47,988	 -50,053	 -0,013	 -38,421	 167,100	 
47,988	 -50,049	 -0,013	 -38,421	 167,200	 
47,988	 -50,047	 -0,013	 -38,416	 167,300	 
47,988	 -50,051	 -0,013	 -38,417	 167,400	 
47,986	 -50,047	 -0,013	 -38,417	 167,500	 
47,988	 -50,042	 -0,014	 -38,416	 167,600	 
47,992	 -50,046	 -0,013	 -38,412	 167,700	 
47,991	 -50,042	 -0,014	 -38,411	 167,800	 
47,990	 -50,044	 -0,014	 -38,411	 167,900	 
47,987	 -50,040	 -0,014	 -38,412	 168,000	 
47,987	 -50,039	 -0,014	 -38,413	 168,100	 
47,990	 -50,038	 -0,014	 -38,410	 168,200	 
47,993	 -50,038	 -0,013	 -38,406	 168,300	 
47,992	 -50,035	 -0,014	 -38,407	 168,400	 
47,994	 -50,035	 -0,013	 -38,406	 168,500	 
47,994	 -50,037	 -0,014	 -38,407	 168,600	 
47,994	 -50,035	 -0,014	 -38,401	 168,700	 
47,995	 -50,034	 -0,014	 -38,403	 168,800	 
47,997	 -50,032	 -0,014	 -38,403	 168,900	 
47,991	 -50,032	 -0,014	 -38,402	 169,000	 
47,997	 -50,031	 -0,014	 -38,402	 169,100	 
47,997	 -50,029	 -0,014	 -38,400	 169,200	 
47,998	 -50,031	 -0,014	 -38,401	 169,300	 
48,001	 -50,028	 -0,014	 -38,398	 169,400	 
47,997	 -50,029	 -0,014	 -38,399	 169,500	 
48,001	 -50,026	 -0,014	 -38,400	 169,600	 
48,004	 -50,024	 -0,014	 -38,397	 169,700	 
48,006	 -50,024	 -0,014	 -38,393	 169,800	 
48,003	 -50,023	 -0,014	 -38,396	 169,900	 
48,001	 -50,020	 -0,014	 -38,399	 170,000	 
48,001	 -50,023	 -0,013	 -38,397	 170,100	 
48,004	 -50,021	 -0,014	 -38,390	 170,200	 
48,006	 -50,023	 -0,014	 -38,392	 170,300	 
48,003	 -50,019	 -0,014	 -38,393	 170,400	 
48,001	 -50,019	 -0,014	 -38,392	 170,500	 
48,001	 -50,016	 -0,014	 -38,392	 170,600	 
48,004	 -50,014	 -0,014	 -38,389	 170,700	 
48,003	 -50,012	 -0,014	 -38,390	 170,800	 
48,006	 -50,013	 -0,014	 -38,387	 170,900	 
48,009	 -50,013	 -0,014	 -38,387	 171,000	 
48,010	 -50,010	 -0,014	 -38,387	 171,100	 
48,012	 -50,010	 -0,013	 -38,385	 171,200	 
48,015	 -50,010	 -0,014	 -38,384	 171,300	 
48,017	 -50,009	 -0,014	 -38,385	 171,400	 
48,017	 -50,007	 -0,014	 -38,385	 171,500	 
48,023	 -50,004	 -0,014	 -38,385	 171,600	 
48,031	 -50,005	 -0,014	 -38,377	 171,700	 
48,033	 -50,003	 -0,014	 -38,378	 171,800	 
48,037	 -50,002	 -0,014	 -38,379	 171,900	 
48,040	 -50,003	 -0,014	 -38,381	 172,000	 
48,041	 -50,002	 -0,014	 -38,379	 172,100	 
48,045	 -50,003	 -0,014	 -38,377	 172,200	 
48,045	 -49,998	 -0,014	 -38,375	 172,300	 
48,048	 -50,002	 -0,014	 -38,377	 172,400	 
48,048	 -50,001	 -0,013	 -38,376	 172,500	 
48,052	 -49,997	 -0,014	 -38,375	 172,600	 
48,048	 -49,994	 -0,014	 -38,372	 172,700	 
48,054	 -49,996	 -0,014	 -38,373	 172,800	 
48,056	 -49,996	 -0,014	 -38,374	 172,900	 
48,059	 -49,994	 -0,014	 -38,373	 173,000	 
48,059	 -49,993	 -0,014	 -38,374	 173,100	 
48,061	 -49,991	 -0,014	 -38,372	 173,200	 
48,065	 -49,993	 -0,019	 -38,370	 173,300	 
48,072	 -49,988	 -0,020	 -38,368	 173,400	 
48,077	 -49,987	 -0,020	 -38,370	 173,500	 
48,083	 -49,987	 -0,020	 -38,373	 173,600	 
48,084	 -49,987	 -0,024	 -38,368	 173,700	 
48,087	 -49,984	 -0,023	 -38,365	 173,800	 
48,085	 -49,980	 -0,023	 -38,368	 173,900	 
48,080	 -49,983	 -0,024	 -38,368	 174,000	 
48,086	 -49,982	 -0,024	 -38,364	 174,100	 
48,089	 -49,980	 -0,024	 -38,359	 174,200	 
48,092	 -49,979	 -0,024	 -38,362	 174,300	 
48,091	 -49,978	 -0,024	 -38,360	 174,400	 
48,091	 -49,977	 -0,025	 -38,360	 174,500	 
48,091	 -49,978	 -0,026	 -38,362	 174,600	 
48,094	 -49,977	 -0,026	 -38,359	 174,700	 
48,097	 -49,977	 -0,025	 -38,357	 174,800	 
48,095	 -49,976	 -0,025	 -38,360	 174,900	 
48,098	 -49,975	 -0,025	 -38,355	 175,000	 
48,094	 -49,973	 -0,026	 -38,358	 175,100	 
48,097	 -49,971	 -0,026	 -38,354	 175,200	 
48,102	 -49,972	 -0,025	 -38,353	 175,300	 
48,098	 -49,970	 -0,025	 -38,354	 175,400	 
48,100	 -49,968	 -0,026	 -38,357	 175,500	 
48,097	 -49,966	 -0,026	 -38,358	 175,600	 
48,098	 -49,966	 -0,026	 -38,349	 175,700	 
48,094	 -49,965	 -0,026	 -38,351	 175,800	 
48,095	 -49,966	 -0,026	 -38,352	 175,900	 
48,093	 -49,964	 -0,026	 -38,352	 176,000	 
48,096	 -49,964	 -0,026	 -38,352	 176,100	 
48,096	 -49,961	 -0,026	 -38,346	 176,200	 
48,100	 -49,958	 -0,026	 -38,345	 176,300	 
48,097	 -49,958	 -0,026	 -38,348	 176,400	 
48,101	 -49,958	 -0,026	 -38,348	 176,500	 
48,108	 -49,954	 -0,026	 -38,345	 176,600	 
48,110	 -49,955	 -0,025	 -38,343	 176,700	 
48,109	 -49,954	 -0,025	 -38,341	 176,800	 
48,113	 -49,954	 -0,025	 -38,339	 176,900	 
48,115	 -49,951	 -0,025	 -38,343	 177,000	 
48,115	 -49,951	 -0,025	 -38,344	 177,100	 
48,115	 -49,952	 -0,026	 -38,338	 177,200	 
48,116	 -49,952	 -0,025	 -38,337	 177,300	 
48,117	 -49,951	 -0,026	 -38,339	 177,400	 
48,113	 -49,951	 -0,026	 -38,340	 177,500	 
48,120	 -49,951	 -0,025	 -38,339	 177,600	 
48,120	 -49,945	 -0,025	 -38,333	 177,700	 
48,124	 -49,942	 -0,025	 -38,335	 177,800	 
48,126	 -49,944	 -0,026	 -38,335	 177,900	 
48,132	 -49,944	 -0,025	 -38,335	 178,000	 
48,133	 -49,942	 -0,026	 -38,338	 178,100	 
48,137	 -49,943	 -0,026	 -38,333	 178,200	 
48,142	 -49,943	 -0,025	 -38,333	 178,300	 
48,145	 -49,943	 -0,025	 -38,333	 178,400	 
48,146	 -49,939	 -0,025	 -38,331	 178,500	 
48,149	 -49,936	 -0,025	 -38,333	 178,600	 
48,150	 -49,934	 -0,025	 -38,328	 178,700	 
48,151	 -49,938	 -0,025	 -38,327	 178,800	 
48,155	 -49,933	 -0,025	 -38,327	 178,900	 
48,158	 -49,934	 -0,025	 -38,328	 179,000	 
48,161	 -49,933	 -0,025	 -38,328	 179,100	 
48,164	 -49,929	 -0,025	 -38,324	 179,200	 
48,168	 -49,929	 -0,026	 -38,323	 179,300	 
48,167	 -49,927	 -0,025	 -38,324	 179,400	 
48,166	 -49,929	 -0,025	 -38,325	 179,500	 
48,167	 -49,928	 -0,025	 -38,325	 179,600	 
48,164	 -49,928	 -0,025	 -38,320	 179,700	 
48,163	 -49,927	 -0,025	 -38,320	 179,800	 
48,166	 -49,926	 -0,026	 -38,319	 179,900	 
48,168	 -49,924	 -0,025	 -38,322	 180,000	 
48,172	 -49,922	 -0,025	 -38,317	 180,100	 
48,175	 -49,920	 -0,025	 -38,319	 180,200	 
48,178	 -49,920	 -0,025	 -38,315	 180,300	 
48,177	 -49,919	 -0,026	 -38,313	 180,400	 
48,181	 -49,919	 -0,025	 -38,317	 180,500	 
48,184	 -49,916	 -0,025	 -38,318	 180,600	 
48,188	 -49,919	 -0,026	 -38,313	 180,700	 
48,186	 -49,919	 -0,026	 -38,311	 180,800	 
48,188	 -49,914	 -0,025	 -38,311	 180,900	 
48,186	 -49,917	 -0,026	 -38,313	 181,000	 
48,186	 -49,915	 -0,026	 -38,313	 181,100	 
48,189	 -49,912	 -0,025	 -38,309	 181,200	 
48,191	 -49,909	 -0,025	 -38,309	 181,300	 
48,192	 -49,909	 -0,025	 -38,309	 181,400	 
48,190	 -49,910	 -0,025	 -38,309	 181,500	 
48,193	 -49,907	 -0,025	 -38,311	 181,600	 
48,190	 -49,908	 -0,025	 -38,306	 181,700	 
48,189	 -49,905	 -0,025	 -38,305	 181,800	 
48,192	 -49,905	 -0,025	 -38,306	 181,900	 
48,193	 -49,905	 -0,025	 -38,306	 182,000	 
48,195	 -49,905	 -0,025	 -38,306	 182,100	 
48,196	 -49,902	 -0,025	 -38,304	 182,200	 
48,199	 -49,904	 -0,025	 -38,300	 182,300	 
48,199	 -49,899	 -0,025	 -38,302	 182,400	 
48,199	 -49,898	 -0,025	 -38,301	 182,500	 
48,206	 -49,898	 -0,025	 -38,304	 182,600	 
48,205	 -49,898	 -0,025	 -38,299	 182,700	 
48,212	 -49,896	 -0,025	 -38,296	 182,800	 
48,212	 -49,893	 -0,025	 -38,297	 182,900	 
48,215	 -49,894	 -0,025	 -38,298	 183,000	 
48,216	 -49,894	 -0,025	 -38,298	 183,100	 
48,216	 -49,893	 -0,026	 -38,294	 183,200	 
48,215	 -49,891	 -0,025	 -38,294	 183,300	 
48,217	 -49,892	 -0,025	 -38,297	 183,400	 
48,217	 -49,892	 -0,025	 -38,296	 183,500	 
48,220	 -49,891	 -0,025	 -38,296	 183,600	 
48,218	 -49,888	 -0,026	 -38,291	 183,700	 
48,225	 -49,885	 -0,025	 -38,291	 183,800	 
48,228	 -49,886	 -0,025	 -38,291	 183,900	 
48,230	 -49,885	 -0,025	 -38,291	 184,000	 
48,233	 -49,880	 -0,025	 -38,291	 184,100	 
48,237	 -49,881	 -0,025	 -38,286	 184,200	 
48,239	 -49,881	 -0,025	 -38,285	 184,300	 
48,240	 -49,880	 -0,025	 -38,286	 184,400	 
48,243	 -49,880	 -0,025	 -38,289	 184,500	 
48,245	 -49,877	 -0,025	 -38,282	 184,600	 
48,252	 -49,877	 -0,025	 -38,282	 184,700	 
48,251	 -49,875	 -0,025	 -38,283	 184,800	 
48,256	 -49,877	 -0,025	 -38,283	 184,900	 
48,256	 -49,877	 -0,025	 -38,282	 185,000	 
48,259	 -49,875	 -0,025	 -38,277	 185,100	 
48,259	 -49,872	 -0,025	 -38,277	 185,200	 
48,262	 -49,871	 -0,026	 -38,280	 185,300	 
48,258	 -49,870	 -0,025	 -38,279	 185,400	 
48,262	 -49,869	 -0,025	 -38,277	 185,500	 
48,264	 -49,870	 -0,025	 -38,276	 185,600	 
48,267	 -49,868	 -0,025	 -38,277	 185,700	 
48,269	 -49,868	 -0,025	 -38,274	 185,800	 
48,267	 -49,867	 -0,025	 -38,274	 185,900	 
48,267	 -49,863	 -0,025	 -38,275	 186,000	 
48,271	 -49,863	 -0,025	 -38,274	 186,100	 
48,271	 -49,866	 -0,025	 -38,271	 186,200	 
48,266	 -49,863	 -0,026	 -38,274	 186,300	 
48,264	 -49,861	 -0,026	 -38,272	 186,400	 
48,267	 -49,860	 -0,025	 -38,272	 186,500	 
48,268	 -49,860	 -0,025	 -38,269	 186,600	 
48,271	 -49,859	 -0,025	 -38,267	 186,700	 
48,276	 -49,854	 -0,025	 -38,267	 186,800	 
48,282	 -49,852	 -0,025	 -38,269	 186,900	 
48,280	 -49,856	 -0,025	 -38,267	 187,000	 
48,281	 -49,853	 -0,025	 -38,265	 187,100	 
48,278	 -49,851	 -0,025	 -38,267	 187,200	 
48,284	 -49,850	 -0,025	 -38,264	 187,300	 
48,283	 -49,850	 -0,025	 -38,263	 187,400	 
48,278	 -49,849	 -0,025	 -38,260	 187,500	 
48,281	 -49,848	 -0,025	 -38,258	 187,600	 
48,279	 -49,847	 -0,025	 -38,261	 187,700	 
48,279	 -49,845	 -0,025	 -38,259	 187,800	 
48,272	 -49,845	 -0,025	 -38,261	 187,900	 
48,279	 -49,842	 -0,025	 -38,259	 188,000	 
48,270	 -49,842	 -0,025	 -38,257	 188,100	 
48,275	 -49,841	 -0,025	 -38,256	 188,200	 
48,275	 -49,841	 -0,025	 -38,256	 188,300	 
48,275	 -49,838	 -0,025	 -38,256	 188,400	 
48,281	 -49,840	 -0,025	 -38,255	 188,500	 
48,282	 -49,836	 -0,025	 -38,249	 188,600	 
48,281	 -49,838	 -0,025	 -38,251	 188,700	 
48,287	 -49,835	 -0,025	 -38,252	 188,800	 
48,284	 -49,834	 -0,025	 -38,253	 188,900	 
48,286	 -49,836	 -0,025	 -38,252	 189,000	 
48,287	 -49,833	 -0,025	 -38,248	 189,100	 
48,289	 -49,830	 -0,025	 -38,248	 189,200	 
48,289	 -49,833	 -0,025	 -38,249	 189,300	 
48,294	 -49,828	 -0,025	 -38,247	 189,400	 
48,293	 -49,830	 -0,025	 -38,247	 189,500	 
48,298	 -49,829	 -0,025	 -38,247	 189,600	 
48,300	 -49,826	 -0,026	 -38,245	 189,700	 
48,300	 -49,826	 -0,025	 -38,245	 189,800	 
48,303	 -49,826	 -0,025	 -38,244	 189,900	 
48,305	 -49,825	 -0,025	 -38,247	 190,000	 
48,306	 -49,821	 -0,025	 -38,241	 190,100	 
48,308	 -49,824	 -0,025	 -38,240	 190,200	 
48,309	 -49,824	 -0,025	 -38,241	 190,300	 
48,310	 -49,819	 -0,025	 -38,238	 190,400	 
48,314	 -49,818	 -0,026	 -38,241	 190,500	 
48,313	 -49,820	 -0,025	 -38,236	 190,600	 
48,321	 -49,817	 -0,025	 -38,238	 190,700	 
48,319	 -49,817	 -0,025	 -38,239	 190,800	 
48,329	 -49,817	 -0,025	 -38,238	 190,900	 
48,333	 -49,814	 -0,025	 -38,236	 191,000	 
48,330	 -49,810	 -0,025	 -38,234	 191,100	 
48,333	 -49,812	 -0,025	 -38,234	 191,200	 
48,336	 -49,812	 -0,025	 -38,234	 191,300	 
48,337	 -49,812	 -0,025	 -38,230	 191,400	 
48,337	 -49,810	 -0,025	 -38,232	 191,500	 
48,339	 -49,810	 -0,025	 -38,232	 191,600	 
48,346	 -49,808	 -0,025	 -38,230	 191,700	 
48,343	 -49,806	 -0,025	 -38,230	 191,800	 
48,346	 -49,806	 -0,026	 -38,230	 191,900	 
48,339	 -49,806	 -0,025	 -38,230	 192,000	 
48,348	 -49,803	 -0,025	 -38,225	 192,100	 
48,346	 -49,802	 -0,025	 -38,228	 192,200	 
48,349	 -49,801	 -0,025	 -38,225	 192,300	 
48,351	 -49,800	 -0,025	 -38,225	 192,400	 
48,350	 -49,799	 -0,025	 -38,225	 192,500	 
48,354	 -49,797	 -0,025	 -38,222	 192,600	 
48,353	 -49,797	 -0,025	 -38,223	 192,700	 
48,355	 -49,796	 -0,025	 -38,223	 192,800	 
48,352	 -49,796	 -0,025	 -38,219	 192,900	 
48,356	 -49,795	 -0,025	 -38,221	 193,000	 
48,356	 -49,792	 -0,025	 -38,220	 193,100	 
48,355	 -49,790	 -0,025	 -38,219	 193,200	 
48,358	 -49,793	 -0,025	 -38,217	 193,300	 
48,358	 -49,788	 -0,025	 -38,218	 193,400	 
48,359	 -49,789	 -0,025	 -38,217	 193,500	 
48,359	 -49,789	 -0,025	 -38,214	 193,600	 
48,354	 -49,785	 -0,025	 -38,213	 193,700	 
48,361	 -49,785	 -0,025	 -38,214	 193,800	 
48,361	 -49,785	 -0,025	 -38,214	 193,900	 
48,361	 -49,785	 -0,025	 -38,215	 194,000	 
48,362	 -49,785	 -0,025	 -38,209	 194,100	 
48,363	 -49,783	 -0,025	 -38,211	 194,200	 
48,365	 -49,782	 -0,025	 -38,212	 194,300	 
48,369	 -49,777	 -0,025	 -38,211	 194,400	 
48,368	 -49,781	 -0,025	 -38,211	 194,500	 
48,371	 -49,779	 -0,025	 -38,207	 194,600	 
48,374	 -49,775	 -0,025	 -38,208	 194,700	 
48,375	 -49,775	 -0,025	 -38,208	 194,800	 
48,373	 -49,776	 -0,025	 -38,206	 194,900	 
48,376	 -49,775	 -0,025	 -38,207	 195,000	 
48,377	 -49,773	 -0,025	 -38,203	 195,100	 
48,377	 -49,772	 -0,025	 -38,203	 195,200	 
48,381	 -49,771	 -0,025	 -38,201	 195,300	 
48,383	 -49,770	 -0,025	 -38,199	 195,400	 
48,386	 -49,768	 -0,025	 -38,202	 195,500	 
48,380	 -49,769	 -0,025	 -38,199	 195,600	 
48,382	 -49,768	 -0,025	 -38,198	 195,700	 
48,382	 -49,765	 -0,025	 -38,195	 195,800	 
48,379	 -49,764	 -0,025	 -38,198	 195,900	 
48,376	 -49,766	 -0,025	 -38,199	 196,000	 
48,383	 -49,764	 -0,025	 -38,193	 196,100	 
48,385	 -49,760	 -0,025	 -38,192	 196,200	 
48,389	 -49,762	 -0,025	 -38,197	 196,300	 
48,392	 -49,760	 -0,025	 -38,194	 196,400	 
48,395	 -49,756	 -0,025	 -38,195	 196,500	 
48,399	 -49,756	 -0,025	 -38,189	 196,600	 
48,404	 -49,757	 -0,025	 -38,191	 196,700	 
48,407	 -49,753	 -0,025	 -38,191	 196,800	 
48,408	 -49,757	 -0,025	 -38,191	 196,900	 
48,408	 -49,753	 -0,025	 -38,192	 197,000	 
48,411	 -49,752	 -0,025	 -38,190	 197,100	 
48,406	 -49,753	 -0,025	 -38,187	 197,200	 
48,409	 -49,753	 -0,025	 -38,188	 197,300	 
48,409	 -49,750	 -0,025	 -38,186	 197,400	 
48,411	 -49,748	 -0,025	 -38,187	 197,500	 
48,411	 -49,752	 -0,025	 -38,182	 197,600	 
48,427	 -49,748	 -0,025	 -38,184	 197,700	 
48,440	 -49,746	 -0,025	 -38,183	 197,800	 
48,449	 -49,746	 -0,025	 -38,182	 197,900	 
48,453	 -49,745	 -0,025	 -38,181	 198,000	 
48,461	 -49,743	 -0,025	 -38,177	 198,100	 
48,462	 -49,740	 -0,025	 -38,181	 198,200	 
48,467	 -49,739	 -0,025	 -38,179	 198,300	 
48,468	 -49,739	 -0,025	 -38,179	 198,400	 
48,473	 -49,737	 -0,025	 -38,178	 198,500	 
48,476	 -49,737	 -0,025	 -38,177	 198,600	 
48,479	 -49,737	 -0,025	 -38,174	 198,700	 
48,479	 -49,736	 -0,025	 -38,177	 198,800	 
48,479	 -49,736	 -0,025	 -38,176	 198,900	 
48,477	 -49,732	 -0,025	 -38,177	 199,000	 
48,476	 -49,731	 -0,025	 -38,171	 199,100	 
48,473	 -49,730	 -0,025	 -38,172	 199,200	 
48,470	 -49,729	 -0,025	 -38,171	 199,300	 
48,472	 -49,729	 -0,025	 -38,170	 199,400	 
48,476	 -49,729	 -0,025	 -38,170	 199,500	 
48,471	 -49,727	 -0,025	 -38,165	 199,600	 
48,470	 -49,725	 -0,025	 -38,165	 199,700	 
48,471	 -49,725	 -0,025	 -38,168	 199,800	 
48,470	 -49,725	 -0,026	 -38,167	 199,900	 
48,468	 -49,724	 -0,025	 -38,167	 200,000	 
48,465	 -49,720	 -0,025	 -38,164	 200,100	 
48,468	 -49,721	 -0,025	 -38,164	 200,200	 
48,465	 -49,721	 -0,025	 -38,160	 200,300	 
48,465	 -49,718	 -0,025	 -38,162	 200,400	 
48,460	 -49,717	 -0,025	 -38,165	 200,500	 
48,461	 -49,716	 -0,025	 -38,162	 200,600	 
48,459	 -49,718	 -0,025	 -38,161	 200,700	 
48,459	 -49,716	 -0,025	 -38,160	 200,800	 
48,461	 -49,711	 -0,025	 -38,160	 200,900	 
48,461	 -49,711	 -0,025	 -38,162	 201,000	 
48,462	 -49,711	 -0,025	 -38,157	 201,100	 
48,461	 -49,709	 -0,025	 -38,155	 201,200	 
48,454	 -49,708	 -0,025	 -38,157	 201,300	 
48,458	 -49,709	 -0,025	 -38,157	 201,400	 
48,457	 -49,709	 -0,025	 -38,151	 201,500	 
48,457	 -49,708	 -0,025	 -38,153	 201,600	 
48,455	 -49,702	 -0,025	 -38,151	 201,700	 
48,454	 -49,706	 -0,025	 -38,153	 201,800	 
48,455	 -49,704	 -0,025	 -38,151	 201,900	 
48,456	 -49,704	 -0,025	 -38,146	 202,000	 
48,453	 -49,700	 -0,025	 -38,150	 202,100	 
48,454	 -49,700	 -0,025	 -38,148	 202,200	 
48,457	 -49,702	 -0,025	 -38,148	 202,300	 
48,459	 -49,699	 -0,025	 -38,148	 202,400	 
48,456	 -49,697	 -0,025	 -38,146	 202,500	 
48,454	 -49,694	 -0,025	 -38,144	 202,600	 
48,464	 -49,697	 -0,025	 -38,142	 202,700	 
48,469	 -49,694	 -0,026	 -38,146	 202,800	 
48,473	 -49,691	 -0,025	 -38,146	 202,900	 
48,476	 -49,691	 -0,026	 -38,138	 203,000	 
48,475	 -49,694	 -0,025	 -38,140	 203,100	 
48,470	 -49,693	 -0,025	 -38,140	 203,200	 
48,472	 -49,690	 -0,025	 -38,142	 203,300	 
48,473	 -49,687	 -0,025	 -38,140	 203,400	 
48,473	 -49,687	 -0,025	 -38,138	 203,500	 
48,473	 -49,687	 -0,025	 -38,137	 203,600	 
48,477	 -49,687	 -0,025	 -38,138	 203,700	 
48,475	 -49,685	 -0,025	 -38,138	 203,800	 
48,479	 -49,683	 -0,025	 -38,137	 203,900	 
48,487	 -49,683	 -0,025	 -38,133	 204,000	 
48,490	 -49,680	 -0,025	 -38,134	 204,100	 
48,492	 -49,679	 -0,025	 -38,133	 204,200	 
48,490	 -49,681	 -0,025	 -38,131	 204,300	 
48,487	 -49,677	 -0,025	 -38,133	 204,400	 
48,487	 -49,677	 -0,025	 -38,129	 204,500	 
48,492	 -49,677	 -0,025	 -38,131	 204,600	 
48,487	 -49,673	 -0,025	 -38,129	 204,700	 
48,490	 -49,673	 -0,025	 -38,128	 204,800	 
48,488	 -49,674	 -0,025	 -38,132	 204,900	 
48,494	 -49,673	 -0,025	 -38,124	 205,000	 
48,495	 -49,672	 -0,025	 -38,126	 205,100	 
48,499	 -49,671	 -0,025	 -38,125	 205,200	 
48,500	 -49,673	 -0,025	 -38,128	 205,300	 
48,503	 -49,669	 -0,025	 -38,127	 205,400	 
48,506	 -49,669	 -0,025	 -38,119	 205,500	 
48,509	 -49,665	 -0,025	 -38,122	 205,600	 
48,513	 -49,665	 -0,025	 -38,122	 205,700	 
48,514	 -49,664	 -0,025	 -38,122	 205,800	 
48,516	 -49,665	 -0,025	 -38,121	 205,900	 
48,520	 -49,664	 -0,025	 -38,118	 206,000	 
48,521	 -49,662	 -0,025	 -38,119	 206,100	 
48,525	 -49,664	 -0,025	 -38,119	 206,200	 
48,522	 -49,659	 -0,025	 -38,117	 206,300	 
48,523	 -49,658	 -0,025	 -38,116	 206,400	 
48,526	 -49,658	 -0,025	 -38,115	 206,500	 
48,530	 -49,657	 -0,025	 -38,114	 206,600	 
48,528	 -49,655	 -0,025	 -38,114	 206,700	 
48,530	 -49,654	 -0,025	 -38,115	 206,800	 
48,534	 -49,655	 -0,025	 -38,114	 206,900	 
48,532	 -49,655	 -0,025	 -38,110	 207,000	 
48,534	 -49,655	 -0,025	 -38,109	 207,100	 
48,538	 -49,650	 -0,025	 -38,111	 207,200	 
48,544	 -49,651	 -0,025	 -38,112	 207,300	 
48,545	 -49,651	 -0,025	 -38,111	 207,400	 
48,554	 -49,650	 -0,025	 -38,106	 207,500	 
48,561	 -49,646	 -0,025	 -38,107	 207,600	 
48,567	 -49,643	 -0,025	 -38,106	 207,700	 
48,572	 -49,644	 -0,025	 -38,106	 207,800	 
48,574	 -49,644	 -0,025	 -38,107	 207,900	 
48,578	 -49,642	 -0,025	 -38,100	 208,000	 
48,578	 -49,641	 -0,025	 -38,102	 208,100	 
48,577	 -49,641	 -0,025	 -38,098	 208,200	 
48,576	 -49,639	 -0,025	 -38,100	 208,300	 
48,577	 -49,636	 -0,025	 -38,103	 208,400	 
48,578	 -49,637	 -0,025	 -38,098	 208,500	 
48,575	 -49,636	 -0,025	 -38,093	 208,600	 
48,580	 -49,634	 -0,025	 -38,098	 208,700	 
48,578	 -49,631	 -0,025	 -38,100	 208,800	 
48,578	 -49,634	 -0,025	 -38,099	 208,900	 
48,578	 -49,636	 -0,025	 -38,093	 209,000	 
48,578	 -49,630	 -0,025	 -38,096	 209,100	 
48,580	 -49,630	 -0,025	 -38,095	 209,200	 
48,582	 -49,630	 -0,025	 -38,095	 209,300	 
48,584	 -49,630	 -0,025	 -38,095	 209,400	 
48,588	 -49,629	 -0,025	 -38,090	 209,500	 
48,587	 -49,627	 -0,025	 -38,091	 209,600	 
48,586	 -49,628	 -0,025	 -38,089	 209,700	 
48,581	 -49,624	 -0,025	 -38,092	 209,800	 
48,586	 -49,622	 -0,025	 -38,092	 209,900	 
48,584	 -49,623	 -0,025	 -38,089	 210,000	 
48,587	 -49,623	 -0,025	 -38,087	 210,100	 
48,582	 -49,624	 -0,025	 -38,086	 210,200	 
48,583	 -49,619	 -0,025	 -38,088	 210,300	 
48,582	 -49,615	 -0,025	 -38,089	 210,400	 
48,586	 -49,621	 -0,025	 -38,083	 210,500	 
48,589	 -49,613	 -0,025	 -38,083	 210,600	 
48,592	 -49,616	 -0,025	 -38,084	 210,700	 
48,591	 -49,616	 -0,025	 -38,085	 210,800	 
48,597	 -49,618	 -0,025	 -38,085	 210,900	 
48,591	 -49,614	 -0,025	 -38,079	 211,000	 
48,593	 -49,613	 -0,025	 -38,081	 211,100	 
48,595	 -49,612	 -0,025	 -38,082	 211,200	 
48,595	 -49,613	 -0,025	 -38,081	 211,300	 
48,595	 -49,613	 -0,025	 -38,079	 211,400	 
48,591	 -49,609	 -0,025	 -38,076	 211,500	 
48,593	 -49,608	 -0,025	 -38,076	 211,600	 
48,595	 -49,609	 -0,025	 -38,076	 211,700	 
48,598	 -49,607	 -0,025	 -38,075	 211,800	 
48,597	 -49,603	 -0,025	 -38,077	 211,900	 
48,598	 -49,602	 -0,025	 -38,072	 212,000	 
48,598	 -49,602	 -0,025	 -38,073	 212,100	 
48,600	 -49,601	 -0,025	 -38,072	 212,200	 
48,602	 -49,599	 -0,025	 -38,074	 212,300	 
48,604	 -49,597	 -0,025	 -38,072	 212,400	 
48,605	 -49,599	 -0,025	 -38,070	 212,500	 
48,606	 -49,596	 -0,025	 -38,066	 212,600	 
48,603	 -49,595	 -0,025	 -38,068	 212,700	 
48,603	 -49,597	 -0,025	 -38,071	 212,800	 
48,606	 -49,599	 -0,025	 -38,068	 212,900	 
48,610	 -49,595	 -0,025	 -38,064	 213,000	 
48,608	 -49,592	 -0,025	 -38,065	 213,100	 
48,611	 -49,593	 -0,025	 -38,066	 213,200	 
48,610	 -49,592	 -0,025	 -38,063	 213,300	 
48,610	 -49,590	 -0,025	 -38,064	 213,400	 
48,613	 -49,591	 -0,025	 -38,063	 213,500	 
48,621	 -49,587	 -0,025	 -38,061	 213,600	 
48,622	 -49,589	 -0,025	 -38,061	 213,700	 
48,626	 -49,586	 -0,025	 -38,061	 213,800	 
48,626	 -49,584	 -0,025	 -38,063	 213,900	 
48,632	 -49,585	 -0,025	 -38,060	 214,000	 
48,635	 -49,585	 -0,025	 -38,057	 214,100	 
48,633	 -49,582	 -0,025	 -38,059	 214,200	 
48,635	 -49,581	 -0,025	 -38,060	 214,300	 
48,636	 -49,581	 -0,025	 -38,059	 214,400	 
48,635	 -49,581	 -0,025	 -38,054	 214,500	 
48,636	 -49,579	 -0,025	 -38,054	 214,600	 
48,634	 -49,577	 -0,025	 -38,055	 214,700	 
48,635	 -49,577	 -0,025	 -38,054	 214,800	 
48,636	 -49,577	 -0,025	 -38,054	 214,900	 
48,638	 -49,572	 -0,025	 -38,052	 215,000	 
48,640	 -49,574	 -0,025	 -38,051	 215,100	 
48,644	 -49,572	 -0,025	 -38,050	 215,200	 
48,641	 -49,570	 -0,025	 -38,050	 215,300	 
48,641	 -49,569	 -0,025	 -38,050	 215,400	 
48,640	 -49,569	 -0,025	 -38,046	 215,500	 
48,639	 -49,570	 -0,025	 -38,048	 215,600	 
48,635	 -49,568	 -0,024	 -38,048	 215,700	 
48,635	 -49,564	 -0,025	 -38,048	 215,800	 
48,636	 -49,563	 -0,025	 -38,048	 215,900	 
48,641	 -49,563	 -0,025	 -38,041	 216,000	 
48,640	 -49,562	 -0,025	 -38,041	 216,100	 
48,637	 -49,558	 -0,025	 -38,043	 216,200	 
48,642	 -49,561	 -0,025	 -38,045	 216,300	 
48,651	 -49,561	 -0,025	 -38,042	 216,400	 
48,651	 -49,561	 -0,025	 -38,039	 216,500	 
48,654	 -49,556	 -0,025	 -38,036	 216,600	 
48,655	 -49,556	 -0,025	 -38,041	 216,700	 
48,662	 -49,556	 -0,025	 -38,036	 216,800	 
48,662	 -49,555	 -0,025	 -38,036	 216,900	 
48,665	 -49,554	 -0,025	 -38,035	 217,000	 
48,663	 -49,555	 -0,025	 -38,036	 217,100	 
48,667	 -49,554	 -0,025	 -38,034	 217,200	 
48,666	 -49,551	 -0,025	 -38,035	 217,300	 
48,672	 -49,549	 -0,025	 -38,036	 217,400	 
48,674	 -49,549	 -0,025	 -38,029	 217,500	 
48,671	 -49,549	 -0,025	 -38,029	 217,600	 
48,675	 -49,549	 -0,025	 -38,029	 217,700	 
48,673	 -49,546	 -0,025	 -38,032	 217,800	 
48,681	 -49,548	 -0,025	 -38,032	 217,900	 
48,679	 -49,547	 -0,025	 -38,027	 218,000	 
48,681	 -49,546	 -0,025	 -38,025	 218,100	 
48,679	 -49,540	 -0,025	 -38,028	 218,200	 
48,680	 -49,542	 -0,025	 -38,028	 218,300	 
48,674	 -49,542	 -0,025	 -38,024	 218,400	 
48,679	 -49,542	 -0,025	 -38,026	 218,500	 
48,677	 -49,539	 -0,025	 -38,026	 218,600	 
48,679	 -49,539	 -0,025	 -38,026	 218,700	 
48,680	 -49,539	 -0,025	 -38,024	 218,800	 
48,687	 -49,537	 -0,025	 -38,020	 218,900	 
48,688	 -49,533	 -0,025	 -38,019	 219,000	 
48,690	 -49,534	 -0,025	 -38,020	 219,100	 
48,690	 -49,533	 -0,025	 -38,019	 219,200	 
48,691	 -49,532	 -0,025	 -38,021	 219,300	 
48,691	 -49,528	 -0,025	 -38,018	 219,400	 
48,693	 -49,528	 -0,025	 -38,017	 219,500	 
48,690	 -49,526	 -0,025	 -38,015	 219,600	 
48,693	 -49,527	 -0,025	 -38,016	 219,700	 
48,690	 -49,526	 -0,025	 -38,016	 219,800	 
48,689	 -49,525	 -0,025	 -38,012	 219,900	 
48,691	 -49,526	 -0,025	 -38,011	 220,000	 
48,695	 -49,521	 -0,025	 -38,011	 220,100	 
48,692	 -49,523	 -0,025	 -38,011	 220,200	 
48,692	 -49,520	 -0,025	 -38,011	 220,300	 
48,694	 -49,520	 -0,025	 -38,006	 220,400	 
48,695	 -49,518	 -0,025	 -38,006	 220,500	 
48,698	 -49,518	 -0,025	 -38,008	 220,600	 
48,696	 -49,519	 -0,025	 -38,008	 220,700	 
48,697	 -49,518	 -0,025	 -38,007	 220,800	 
48,701	 -49,516	 -0,025	 -38,004	 220,900	 
48,698	 -49,514	 -0,025	 -38,005	 221,000	 
48,707	 -49,516	 -0,025	 -38,005	 221,100	 
48,709	 -49,512	 -0,025	 -38,005	 221,200	 
48,710	 -49,511	 -0,025	 -38,004	 221,300	 
48,711	 -49,512	 -0,025	 -38,002	 221,400	 
48,715	 -49,510	 -0,025	 -38,000	 221,500	 
48,720	 -49,508	 -0,025	 -38,001	 221,600	 
48,726	 -49,506	 -0,025	 -38,002	 221,700	 
48,734	 -49,506	 -0,025	 -38,004	 221,800	 
48,734	 -49,507	 -0,025	 -37,997	 221,900	 
48,739	 -49,503	 -0,024	 -37,996	 222,000	 
48,740	 -49,502	 -0,025	 -37,995	 222,100	 
48,743	 -49,502	 -0,025	 -37,998	 222,200	 
48,742	 -49,502	 -0,025	 -37,997	 222,300	 
48,747	 -49,500	 -0,025	 -37,992	 222,400	 
48,746	 -49,498	 -0,025	 -37,991	 222,500	 
48,749	 -49,498	 -0,025	 -37,994	 222,600	 
48,750	 -49,497	 -0,025	 -37,994	 222,700	 
48,749	 -49,497	 -0,025	 -37,993	 222,800	 
48,748	 -49,492	 -0,025	 -37,989	 222,900	 
48,753	 -49,495	 -0,025	 -37,989	 223,000	 
48,752	 -49,497	 -0,025	 -37,990	 223,100	 
48,757	 -49,493	 -0,025	 -37,989	 223,200	 
48,755	 -49,490	 -0,025	 -37,989	 223,300	 
48,757	 -49,492	 -0,025	 -37,988	 223,400	 
48,754	 -49,492	 -0,025	 -37,986	 223,500	 
48,758	 -49,488	 -0,024	 -37,986	 223,600	 
48,763	 -49,486	 -0,025	 -37,987	 223,700	 
48,764	 -49,486	 -0,025	 -37,984	 223,800	 
48,768	 -49,486	 -0,025	 -37,982	 223,900	 
48,767	 -49,484	 -0,025	 -37,982	 224,000	 
48,766	 -49,486	 -0,025	 -37,982	 224,100	 
48,768	 -49,484	 -0,025	 -37,982	 224,200	 
48,770	 -49,479	 -0,025	 -37,982	 224,300	 
48,770	 -49,477	 -0,025	 -37,978	 224,400	 
48,767	 -49,477	 -0,025	 -37,978	 224,500	 
48,771	 -49,477	 -0,025	 -37,978	 224,600	 
48,769	 -49,478	 -0,025	 -37,976	 224,700	 
48,768	 -49,475	 -0,025	 -37,977	 224,800	 
48,766	 -49,475	 -0,025	 -37,976	 224,900	 
48,767	 -49,474	 -0,025	 -37,975	 225,000	 
48,764	 -49,473	 -0,025	 -37,974	 225,100	 
48,768	 -49,469	 -0,025	 -37,973	 225,200	 
48,764	 -49,472	 -0,025	 -37,976	 225,300	 
48,767	 -49,468	 -0,025	 -37,971	 225,400	 
48,768	 -49,468	 -0,025	 -37,971	 225,500	 
48,766	 -49,467	 -0,025	 -37,969	 225,600	 
48,766	 -49,467	 -0,025	 -37,972	 225,700	 
48,766	 -49,467	 -0,025	 -37,971	 225,800	 
48,768	 -49,467	 -0,025	 -37,967	 225,900	 
48,770	 -49,462	 -0,025	 -37,965	 226,000	 
48,775	 -49,463	 -0,025	 -37,968	 226,100	 
48,777	 -49,462	 -0,025	 -37,965	 226,200	 
48,775	 -49,462	 -0,025	 -37,966	 226,300	 
48,780	 -49,460	 -0,025	 -37,962	 226,400	 
48,780	 -49,460	 -0,024	 -37,963	 226,500	 
48,784	 -49,462	 -0,025	 -37,963	 226,600	 
48,790	 -49,458	 -0,025	 -37,962	 226,700	 
48,785	 -49,457	 -0,025	 -37,965	 226,800	 
48,788	 -49,454	 -0,025	 -37,960	 226,900	 
48,786	 -49,454	 -0,025	 -37,958	 227,000	 
48,789	 -49,454	 -0,025	 -37,958	 227,100	 
48,786	 -49,453	 -0,025	 -37,960	 227,200	 
48,785	 -49,452	 -0,025	 -37,962	 227,300	 
48,787	 -49,452	 -0,025	 -37,955	 227,400	 
48,789	 -49,449	 -0,025	 -37,956	 227,500	 
48,786	 -49,448	 -0,025	 -37,955	 227,600	 
48,790	 -49,447	 -0,025	 -37,957	 227,700	 
48,789	 -49,447	 -0,025	 -37,955	 227,800	 
48,792	 -49,446	 -0,025	 -37,951	 227,900	 
48,793	 -49,444	 -0,025	 -37,953	 228,000	 
48,798	 -49,444	 -0,025	 -37,951	 228,100	 
48,800	 -49,446	 -0,025	 -37,951	 228,200	 
48,801	 -49,440	 -0,025	 -37,948	 228,300	 
48,799	 -49,439	 -0,025	 -37,950	 228,400	 
48,801	 -49,439	 -0,025	 -37,948	 228,500	 
48,805	 -49,440	 -0,025	 -37,945	 228,600	 
48,808	 -49,437	 -0,025	 -37,945	 228,700	 
48,808	 -49,435	 -0,025	 -37,948	 228,800	 
48,810	 -49,434	 -0,025	 -37,944	 228,900	 
48,808	 -49,434	 -0,025	 -37,943	 229,000	 
48,810	 -49,432	 -0,025	 -37,941	 229,100	 
48,808	 -49,430	 -0,025	 -37,944	 229,200	 
48,814	 -49,431	 -0,025	 -37,945	 229,300	 
48,816	 -49,431	 -0,025	 -37,938	 229,400	 
48,818	 -49,427	 -0,025	 -37,939	 229,500	 
48,821	 -49,426	 -0,025	 -37,939	 229,600	 
48,821	 -49,426	 -0,025	 -37,940	 229,700	 
48,820	 -49,426	 -0,025	 -37,938	 229,800	 
48,823	 -49,426	 -0,025	 -37,930	 229,900	 
48,823	 -49,420	 -0,025	 -37,938	 230,000	 
48,825	 -49,421	 -0,025	 -37,938	 230,100	 
48,834	 -49,420	 -0,025	 -37,936	 230,200	 
48,839	 -49,419	 -0,025	 -37,934	 230,300	 
48,843	 -49,419	 -0,025	 -37,933	 230,400	 
48,841	 -49,420	 -0,025	 -37,932	 230,500	 
48,843	 -49,416	 -0,025	 -37,930	 230,600	 
48,843	 -49,417	 -0,025	 -37,931	 230,700	 
48,844	 -49,416	 -0,025	 -37,934	 230,800	 
48,841	 -49,413	 -0,025	 -37,926	 230,900	 
48,840	 -49,414	 -0,025	 -37,926	 231,000	 
48,834	 -49,412	 -0,025	 -37,926	 231,100	 
48,839	 -49,409	 -0,025	 -37,931	 231,200	 
48,841	 -49,412	 -0,025	 -37,926	 231,300	 
48,839	 -49,410	 -0,025	 -37,923	 231,400	 
48,837	 -49,409	 -0,025	 -37,923	 231,500	 
48,842	 -49,404	 -0,025	 -37,923	 231,600	 
48,840	 -49,406	 -0,025	 -37,923	 231,700	 
48,840	 -49,406	 -0,025	 -37,923	 231,800	 
48,839	 -49,402	 -0,025	 -37,919	 231,900	 
48,842	 -49,403	 -0,025	 -37,920	 232,000	 
48,841	 -49,405	 -0,025	 -37,916	 232,100	 
48,842	 -49,403	 -0,025	 -37,919	 232,200	 
48,841	 -49,398	 -0,025	 -37,920	 232,300	 
48,842	 -49,399	 -0,025	 -37,916	 232,400	 
48,841	 -49,399	 -0,025	 -37,917	 232,500	 
48,843	 -49,398	 -0,025	 -37,916	 232,600	 
48,844	 -49,392	 -0,025	 -37,916	 232,700	 
48,844	 -49,394	 -0,025	 -37,918	 232,800	 
48,843	 -49,394	 -0,025	 -37,914	 232,900	 
48,847	 -49,396	 -0,025	 -37,912	 233,000	 
48,845	 -49,391	 -0,025	 -37,913	 233,100	 
48,843	 -49,391	 -0,025	 -37,912	 233,200	 
48,843	 -49,391	 -0,025	 -37,912	 233,300	 
48,845	 -49,391	 -0,025	 -37,909	 233,400	 
48,840	 -49,387	 -0,025	 -37,908	 233,500	 
48,848	 -49,389	 -0,025	 -37,909	 233,600	 
48,846	 -49,387	 -0,025	 -37,911	 233,700	 
48,847	 -49,385	 -0,025	 -37,910	 233,800	 
48,848	 -49,384	 -0,025	 -37,907	 233,900	 
48,858	 -49,384	 -0,025	 -37,906	 234,000	 
48,860	 -49,384	 -0,025	 -37,904	 234,100	 
48,863	 -49,381	 -0,025	 -37,906	 234,200	 
48,865	 -49,380	 -0,025	 -37,904	 234,300	 
48,867	 -49,378	 -0,025	 -37,901	 234,400	 
48,863	 -49,379	 -0,025	 -37,902	 234,500	 
48,867	 -49,379	 -0,025	 -37,900	 234,600	 
48,866	 -49,373	 -0,025	 -37,902	 234,700	 
48,871	 -49,375	 -0,025	 -37,901	 234,800	 
48,871	 -49,374	 -0,024	 -37,896	 234,900	 
48,871	 -49,373	 -0,025	 -37,897	 235,000	 
48,874	 -49,372	 -0,024	 -37,899	 235,100	 
48,873	 -49,370	 -0,025	 -37,897	 235,200	 
48,871	 -49,370	 -0,025	 -37,896	 235,300	 
48,871	 -49,367	 -0,025	 -37,894	 235,400	 
48,874	 -49,366	 -0,025	 -37,894	 235,500	 
48,873	 -49,370	 -0,025	 -37,894	 235,600	 
48,874	 -49,368	 -0,025	 -37,894	 235,700	 
48,873	 -49,366	 -0,025	 -37,888	 235,800	 
48,874	 -49,363	 -0,025	 -37,892	 235,900	 
48,880	 -49,364	 -0,025	 -37,892	 236,000	 
48,881	 -49,363	 -0,025	 -37,889	 236,100	 
48,882	 -49,362	 -0,025	 -37,889	 236,200	 
48,887	 -49,362	 -0,024	 -37,887	 236,300	 
48,891	 -49,359	 -0,025	 -37,886	 236,400	 
48,891	 -49,359	 -0,025	 -37,886	 236,500	 
48,895	 -49,356	 -0,025	 -37,885	 236,600	 
48,896	 -49,356	 -0,025	 -37,888	 236,700	 
48,896	 -49,356	 -0,025	 -37,879	 236,800	 
48,896	 -49,356	 -0,025	 -37,883	 236,900	 
48,894	 -49,354	 -0,025	 -37,883	 237,000	 
48,895	 -49,354	 -0,025	 -37,883	 237,100	 
48,898	 -49,354	 -0,025	 -37,885	 237,200	 
48,904	 -49,351	 -0,025	 -37,878	 237,300	 
48,902	 -49,347	 -0,025	 -37,878	 237,400	 
48,904	 -49,350	 -0,025	 -37,879	 237,500	 
48,906	 -49,349	 -0,025	 -37,879	 237,600	 
48,909	 -49,347	 -0,025	 -37,879	 237,700	 
48,911	 -49,345	 -0,025	 -37,875	 237,800	 
48,909	 -49,343	 -0,025	 -37,876	 237,900	 
48,907	 -49,346	 -0,025	 -37,876	 238,000	 
48,913	 -49,345	 -0,025	 -37,876	 238,100	 
48,913	 -49,341	 -0,025	 -37,873	 238,200	 
48,917	 -49,342	 -0,025	 -37,872	 238,300	 
48,916	 -49,342	 -0,025	 -37,873	 238,400	 
48,921	 -49,339	 -0,025	 -37,870	 238,500	 
48,922	 -49,336	 -0,025	 -37,868	 238,600	 
48,922	 -49,336	 -0,025	 -37,873	 238,700	 
48,924	 -49,335	 -0,025	 -37,866	 238,800	 
48,924	 -49,335	 -0,025	 -37,866	 238,900	 
48,925	 -49,329	 -0,025	 -37,864	 239,000	 
48,928	 -49,333	 -0,025	 -37,868	 239,100	 
48,933	 -49,333	 -0,025	 -37,866	 239,200	 
48,933	 -49,329	 -0,025	 -37,862	 239,300	 
48,932	 -49,328	 -0,025	 -37,864	 239,400	 
48,931	 -49,329	 -0,025	 -37,859	 239,500	 
48,931	 -49,328	 -0,025	 -37,862	 239,600	 
48,928	 -49,326	 -0,025	 -37,863	 239,700	 
48,932	 -49,326	 -0,025	 -37,860	 239,800	 
48,932	 -49,324	 -0,025	 -37,860	 239,900	 
48,933	 -49,324	 -0,025	 -37,859	 240,000	 
48,935	 -49,321	 -0,025	 -37,857	 240,100	 
48,935	 -49,319	 -0,025	 -37,860	 240,200	 
48,932	 -49,320	 -0,025	 -37,854	 240,300	 
48,933	 -49,317	 -0,025	 -37,855	 240,400	 
48,925	 -49,320	 -0,025	 -37,854	 240,500	 
48,930	 -49,318	 -0,024	 -37,855	 240,600	 
48,932	 -49,316	 -0,025	 -37,853	 240,700	 
48,928	 -49,321	 -0,024	 -37,851	 240,800	 
48,928	 -49,314	 -0,025	 -37,851	 240,900	 
48,931	 -49,314	 -0,025	 -37,852	 241,000	 
48,928	 -49,312	 -0,025	 -37,853	 241,100	 
48,933	 -49,312	 -0,025	 -37,851	 241,200	 
48,931	 -49,312	 -0,025	 -37,848	 241,300	 
48,939	 -49,309	 -0,024	 -37,851	 241,400	 
48,933	 -49,307	 -0,025	 -37,849	 241,500	 
48,933	 -49,307	 -0,025	 -37,849	 241,600	 
48,935	 -49,307	 -0,025	 -37,848	 241,700	 
48,935	 -49,306	 -0,025	 -37,845	 241,800	 
48,938	 -49,305	 -0,025	 -37,845	 241,900	 
48,935	 -49,303	 -0,024	 -37,845	 242,000	 
48,933	 -49,303	 -0,025	 -37,842	 242,100	 
48,944	 -49,303	 -0,025	 -37,842	 242,200	 
48,946	 -49,301	 -0,025	 -37,840	 242,300	 
48,948	 -49,299	 -0,025	 -37,840	 242,400	 
48,955	 -49,298	 -0,025	 -37,837	 242,500	 
48,957	 -49,297	 -0,025	 -37,840	 242,600	 
48,959	 -49,298	 -0,024	 -37,838	 242,700	 
48,959	 -49,297	 -0,025	 -37,837	 242,800	 
48,962	 -49,296	 -0,025	 -37,837	 242,900	 
48,962	 -49,292	 -0,025	 -37,838	 243,000	 
48,963	 -49,292	 -0,025	 -37,833	 243,100	 
48,966	 -49,292	 -0,025	 -37,834	 243,200	 
48,963	 -49,291	 -0,025	 -37,832	 243,300	 
48,966	 -49,288	 -0,025	 -37,833	 243,400	 
48,968	 -49,291	 -0,025	 -37,832	 243,500	 
48,968	 -49,285	 -0,025	 -37,830	 243,600	 
48,968	 -49,286	 -0,025	 -37,832	 243,700	 
48,968	 -49,286	 -0,025	 -37,829	 243,800	 
48,965	 -49,286	 -0,025	 -37,828	 243,900	 
48,970	 -49,285	 -0,025	 -37,828	 244,000	 
48,970	 -49,280	 -0,025	 -37,829	 244,100	 
48,972	 -49,282	 -0,025	 -37,829	 244,200	 
48,972	 -49,283	 -0,025	 -37,823	 244,300	 
48,977	 -49,282	 -0,025	 -37,828	 244,400	 
48,976	 -49,278	 -0,025	 -37,826	 244,500	 
48,981	 -49,278	 -0,025	 -37,823	 244,600	 
48,979	 -49,278	 -0,025	 -37,826	 244,700	 
48,980	 -49,278	 -0,025	 -37,820	 244,800	 
48,981	 -49,274	 -0,025	 -37,822	 244,900	 
48,984	 -49,272	 -0,025	 -37,823	 245,000	 
48,983	 -49,274	 -0,025	 -37,822	 245,100	 
48,981	 -49,271	 -0,025	 -37,822	 245,200	 
48,987	 -49,271	 -0,024	 -37,820	 245,300	 
48,985	 -49,271	 -0,025	 -37,816	 245,400	 
48,989	 -49,270	 -0,025	 -37,818	 245,500	 
48,992	 -49,266	 -0,025	 -37,818	 245,600	 
48,997	 -49,267	 -0,025	 -37,819	 245,700	 
49,006	 -49,268	 -0,025	 -37,814	 245,800	 
49,016	 -49,264	 -0,025	 -37,814	 245,900	 
49,016	 -49,264	 -0,025	 -37,814	 246,000	 
49,020	 -49,263	 -0,025	 -37,816	 246,100	 
49,024	 -49,263	 -0,025	 -37,816	 246,200	 
49,027	 -49,261	 -0,025	 -37,809	 246,300	 
49,023	 -49,261	 -0,025	 -37,812	 246,400	 
49,025	 -49,255	 -0,025	 -37,811	 246,500	 
49,018	 -49,255	 -0,025	 -37,811	 246,600	 
49,021	 -49,257	 -0,025	 -37,811	 246,700	 
49,018	 -49,254	 -0,025	 -37,806	 246,800	 
49,016	 -49,253	 -0,024	 -37,807	 246,900	 
49,015	 -49,256	 -0,025	 -37,807	 247,000	 
49,012	 -49,253	 -0,025	 -37,804	 247,100	 
49,012	 -49,250	 -0,025	 -37,806	 247,200	 
49,014	 -49,248	 -0,025	 -37,804	 247,300	 
49,016	 -49,247	 -0,025	 -37,804	 247,400	 
49,020	 -49,247	 -0,025	 -37,802	 247,500	 
49,020	 -49,247	 -0,025	 -37,804	 247,600	 
49,020	 -49,243	 -0,025	 -37,806	 247,700	 
49,020	 -49,242	 -0,025	 -37,799	 247,800	 
49,016	 -49,244	 -0,025	 -37,798	 247,900	 
49,020	 -49,243	 -0,025	 -37,798	 248,000	 
49,021	 -49,243	 -0,025	 -37,801	 248,100	 
49,027	 -49,241	 -0,025	 -37,800	 248,200	 
49,022	 -49,241	 -0,025	 -37,795	 248,300	 
49,023	 -49,237	 -0,025	 -37,796	 248,400	 
49,025	 -49,237	 -0,025	 -37,794	 248,500	 
49,027	 -49,238	 -0,025	 -37,798	 248,600	 
49,026	 -49,237	 -0,025	 -37,795	 248,700	 
49,029	 -49,234	 -0,025	 -37,795	 248,800	 
49,029	 -49,234	 -0,025	 -37,795	 248,900	 
49,028	 -49,234	 -0,025	 -37,791	 249,000	 
49,026	 -49,233	 -0,025	 -37,789	 249,100	 
49,025	 -49,229	 -0,025	 -37,795	 249,200	 
49,026	 -49,232	 -0,025	 -37,789	 249,300	 
49,025	 -49,233	 -0,025	 -37,789	 249,400	 
49,024	 -49,229	 -0,025	 -37,788	 249,500	 
49,025	 -49,226	 -0,025	 -37,788	 249,600	 
49,025	 -49,226	 -0,024	 -37,789	 249,700	 
49,025	 -49,226	 -0,025	 -37,785	 249,800	 
49,025	 -49,226	 -0,025	 -37,787	 249,900	 
49,025	 -49,223	 -0,025	 -37,785	 250,000	 
49,023	 -49,222	 -0,025	 -37,785	 250,100	 
49,023	 -49,222	 -0,025	 -37,785	 250,200	 
49,022	 -49,222	 -0,025	 -37,780	 250,300	 
49,024	 -49,216	 -0,025	 -37,781	 250,400	 
49,025	 -49,216	 -0,025	 -37,784	 250,500	 
49,028	 -49,220	 -0,025	 -37,782	 250,600	 
49,032	 -49,216	 -0,025	 -37,779	 250,700	 
49,031	 -49,215	 -0,025	 -37,778	 250,800	 
49,034	 -49,213	 -0,025	 -37,776	 250,900	 
49,037	 -49,212	 -0,025	 -37,772	 251,000	 
49,038	 -49,213	 -0,025	 -37,775	 251,100	 
49,041	 -49,209	 -0,025	 -37,777	 251,200	 
49,039	 -49,209	 -0,025	 -37,774	 251,300	 
49,038	 -49,208	 -0,025	 -37,770	 251,400	 
49,038	 -49,207	 -0,025	 -37,771	 251,500	 
49,038	 -49,206	 -0,024	 -37,772	 251,600	 
49,038	 -49,204	 -0,025	 -37,772	 251,700	 
49,036	 -49,204	 -0,024	 -37,768	 251,800	 
49,036	 -49,204	 -0,025	 -37,767	 251,900	 
49,036	 -49,202	 -0,024	 -37,769	 252,000	 
49,040	 -49,201	 -0,025	 -37,768	 252,100	 
49,042	 -49,200	 -0,025	 -37,766	 252,200	 
49,041	 -49,199	 -0,025	 -37,765	 252,300	 
49,045	 -49,197	 -0,024	 -37,765	 252,400	 
49,047	 -49,199	 -0,025	 -37,765	 252,500	 
49,051	 -49,197	 -0,025	 -37,763	 252,600	 
49,055	 -49,196	 -0,025	 -37,759	 252,700	 
49,055	 -49,195	 -0,025	 -37,762	 252,800	 
49,060	 -49,194	 -0,025	 -37,762	 252,900	 
49,053	 -49,190	 -0,025	 -37,760	 253,000	 
49,054	 -49,192	 -0,025	 -37,761	 253,100	 
49,055	 -49,192	 -0,025	 -37,759	 253,200	 
49,060	 -49,192	 -0,025	 -37,759	 253,300	 
49,060	 -49,190	 -0,025	 -37,756	 253,400	 
49,063	 -49,188	 -0,025	 -37,757	 253,500	 
49,063	 -49,188	 -0,025	 -37,759	 253,600	 
49,067	 -49,189	 -0,024	 -37,753	 253,700	 
49,066	 -49,188	 -0,025	 -37,754	 253,800	 
49,069	 -49,183	 -0,025	 -37,750	 253,900	 
49,072	 -49,182	 -0,025	 -37,753	 254,000	 
49,078	 -49,182	 -0,025	 -37,750	 254,100	 
49,075	 -49,180	 -0,025	 -37,750	 254,200	 
49,077	 -49,178	 -0,025	 -37,745	 254,300	 
49,077	 -49,180	 -0,025	 -37,749	 254,400	 
49,077	 -49,180	 -0,025	 -37,750	 254,500	 
49,077	 -49,178	 -0,025	 -37,750	 254,600	 
49,079	 -49,174	 -0,025	 -37,745	 254,700	 
49,082	 -49,173	 -0,025	 -37,746	 254,800	 
49,080	 -49,175	 -0,025	 -37,747	 254,900	 
49,077	 -49,174	 -0,025	 -37,744	 255,000	 
49,077	 -49,169	 -0,025	 -37,745	 255,100	 
49,080	 -49,173	 -0,025	 -37,744	 255,200	 
49,082	 -49,172	 -0,025	 -37,741	 255,300	 
49,082	 -49,170	 -0,025	 -37,741	 255,400	 
49,082	 -49,168	 -0,025	 -37,740	 255,500	 
49,080	 -49,166	 -0,025	 -37,742	 255,600	 
49,091	 -49,169	 -0,025	 -37,737	 255,700	 
49,093	 -49,166	 -0,025	 -37,737	 255,800	 
49,093	 -49,161	 -0,025	 -37,736	 255,900	 
49,098	 -49,162	 -0,024	 -37,740	 256,000	 
49,097	 -49,166	 -0,025	 -37,735	 256,100	 
49,095	 -49,164	 -0,025	 -37,734	 256,200	 
49,097	 -49,161	 -0,025	 -37,736	 256,300	 
49,099	 -49,159	 -0,025	 -37,736	 256,400	 
49,099	 -49,160	 -0,024	 -37,733	 256,500	 
49,099	 -49,159	 -0,025	 -37,732	 256,600	 
49,098	 -49,156	 -0,025	 -37,730	 256,700	 
49,100	 -49,157	 -0,025	 -37,732	 256,800	 
49,098	 -49,156	 -0,025	 -37,728	 256,900	 
49,096	 -49,155	 -0,025	 -37,731	 257,000	 
49,095	 -49,151	 -0,025	 -37,732	 257,100	 
49,099	 -49,148	 -0,025	 -37,728	 257,200	 
49,105	 -49,150	 -0,025	 -37,726	 257,300	 
49,104	 -49,150	 -0,025	 -37,728	 257,400	 
49,106	 -49,148	 -0,025	 -37,727	 257,500	 
49,108	 -49,146	 -0,025	 -37,727	 257,600	 
49,110	 -49,148	 -0,025	 -37,723	 257,700	 
49,109	 -49,145	 -0,025	 -37,721	 257,800	 
49,112	 -49,144	 -0,025	 -37,725	 257,900	 
49,118	 -49,145	 -0,025	 -37,721	 258,000	 
49,119	 -49,142	 -0,025	 -37,722	 258,100	 
49,113	 -49,143	 -0,024	 -37,718	 258,200	 
49,116	 -49,139	 -0,025	 -37,721	 258,300	 
49,121	 -49,140	 -0,025	 -37,717	 258,400	 
49,117	 -49,138	 -0,025	 -37,718	 258,500	 
49,112	 -49,138	 -0,025	 -37,717	 258,600	 
49,115	 -49,134	 -0,025	 -37,715	 258,700	 
49,119	 -49,136	 -0,025	 -37,716	 258,800	 
49,117	 -49,135	 -0,025	 -37,713	 258,900	 
49,119	 -49,132	 -0,025	 -37,713	 259,000	 
49,124	 -49,131	 -0,025	 -37,716	 259,100	 
49,126	 -49,131	 -0,025	 -37,710	 259,200	 
49,125	 -49,131	 -0,025	 -37,711	 259,300	 
49,127	 -49,131	 -0,025	 -37,710	 259,400	 
49,130	 -49,130	 -0,025	 -37,713	 259,500	 
49,130	 -49,128	 -0,025	 -37,711	 259,600	 
49,132	 -49,127	 -0,025	 -37,707	 259,700	 
49,131	 -49,126	 -0,025	 -37,707	 259,800	 
49,132	 -49,124	 -0,025	 -37,707	 259,900	 
49,132	 -49,124	 -0,025	 -37,708	 260,000	 
49,132	 -49,124	 -0,024	 -37,709	 260,100	 
49,129	 -49,119	 -0,025	 -37,704	 260,200	 
49,135	 -49,117	 -0,025	 -37,707	 260,300	 
49,139	 -49,120	 -0,025	 -37,702	 260,400	 
49,139	 -49,120	 -0,025	 -37,707	 260,500	 
49,136	 -49,114	 -0,025	 -37,701	 260,600	 
49,132	 -49,117	 -0,025	 -37,698	 260,700	 
49,135	 -49,117	 -0,025	 -37,696	 260,800	 
49,135	 -49,117	 -0,025	 -37,696	 260,900	 
49,138	 -49,113	 -0,025	 -37,696	 261,000	 
49,137	 -49,112	 -0,025	 -37,697	 261,100	 
49,138	 -49,112	 -0,025	 -37,693	 261,200	 
49,138	 -49,112	 -0,024	 -37,693	 261,300	 
49,142	 -49,109	 -0,025	 -37,694	 261,400	 
49,143	 -49,109	 -0,025	 -37,696	 261,500	 
49,146	 -49,109	 -0,025	 -37,691	 261,600	 
49,148	 -49,108	 -0,025	 -37,688	 261,700	 
49,151	 -49,104	 -0,025	 -37,689	 261,800	 
49,155	 -49,102	 -0,025	 -37,688	 261,900	 
49,153	 -49,104	 -0,025	 -37,688	 262,000	 
49,158	 -49,104	 -0,025	 -37,684	 262,100	 
49,156	 -49,102	 -0,024	 -37,684	 262,200	 
49,161	 -49,102	 -0,025	 -37,684	 262,300	 
49,163	 -49,102	 -0,025	 -37,684	 262,400	 
49,164	 -49,098	 -0,025	 -37,684	 262,500	 
49,169	 -49,097	 -0,024	 -37,688	 262,600	 
49,172	 -49,097	 -0,025	 -37,682	 262,700	 
49,173	 -49,095	 -0,024	 -37,681	 262,800	 
49,175	 -49,095	 -0,025	 -37,682	 262,900	 
49,180	 -49,094	 -0,025	 -37,684	 263,000	 
49,175	 -49,094	 -0,025	 -37,681	 263,100	 
49,179	 -49,095	 -0,025	 -37,676	 263,200	 
49,179	 -49,091	 -0,025	 -37,678	 263,300	 
49,180	 -49,089	 -0,025	 -37,679	 263,400	 
49,180	 -49,088	 -0,025	 -37,675	 263,500	 
49,180	 -49,088	 -0,025	 -37,675	 263,600	 
49,180	 -49,087	 -0,025	 -37,674	 263,700	 
49,187	 -49,087	 -0,025	 -37,674	 263,800	 
49,187	 -49,087	 -0,025	 -37,674	 263,900	 
49,187	 -49,083	 -0,025	 -37,674	 264,000	 
49,187	 -49,082	 -0,024	 -37,674	 264,100	 
49,185	 -49,078	 -0,025	 -37,672	 264,200	 
49,185	 -49,080	 -0,025	 -37,674	 264,300	 
49,179	 -49,081	 -0,025	 -37,668	 264,400	 
49,187	 -49,077	 -0,025	 -37,669	 264,500	 
49,187	 -49,079	 -0,025	 -37,670	 264,600	 
49,189	 -49,078	 -0,025	 -37,665	 264,700	 
49,189	 -49,078	 -0,025	 -37,665	 264,800	 
49,184	 -49,074	 -0,025	 -37,666	 264,900	 
49,187	 -49,073	 -0,025	 -37,667	 265,000	 
49,189	 -49,074	 -0,025	 -37,666	 265,100	 
49,191	 -49,072	 -0,025	 -37,662	 265,200	 
49,191	 -49,072	 -0,025	 -37,661	 265,300	 
49,191	 -49,068	 -0,025	 -37,662	 265,400	 
49,192	 -49,070	 -0,025	 -37,662	 265,500	 
49,192	 -49,073	 -0,025	 -37,661	 265,600	 
49,197	 -49,066	 -0,025	 -37,658	 265,700	 
49,197	 -49,067	 -0,025	 -37,657	 265,800	 
49,198	 -49,066	 -0,025	 -37,657	 265,900	 
49,195	 -49,064	 -0,024	 -37,658	 266,000	 
49,195	 -49,061	 -0,025	 -37,658	 266,100	 
49,195	 -49,062	 -0,025	 -37,656	 266,200	 
49,199	 -49,061	 -0,025	 -37,653	 266,300	 
49,198	 -49,060	 -0,025	 -37,655	 266,400	 
49,200	 -49,058	 -0,025	 -37,651	 266,500	 
49,198	 -49,058	 -0,025	 -37,656	 266,600	 
49,200	 -49,062	 -0,025	 -37,652	 266,700	 
49,196	 -49,057	 -0,025	 -37,652	 266,800	 
49,198	 -49,055	 -0,025	 -37,652	 266,900	 
49,202	 -49,053	 -0,025	 -37,652	 267,000	 
49,200	 -49,052	 -0,025	 -37,649	 267,100	 
49,203	 -49,051	 -0,025	 -37,644	 267,200	 
49,201	 -49,051	 -0,025	 -37,652	 267,300	 
49,201	 -49,049	 -0,025	 -37,646	 267,400	 
49,204	 -49,049	 -0,025	 -37,646	 267,500	 
49,206	 -49,048	 -0,025	 -37,647	 267,600	 
49,206	 -49,044	 -0,024	 -37,644	 267,700	 
49,206	 -49,046	 -0,025	 -37,645	 267,800	 
49,204	 -49,044	 -0,025	 -37,640	 267,900	 
49,207	 -49,044	 -0,025	 -37,643	 268,000	 
49,206	 -49,044	 -0,024	 -37,644	 268,100	 
49,207	 -49,042	 -0,025	 -37,637	 268,200	 
49,203	 -49,040	 -0,025	 -37,638	 268,300	 
49,205	 -49,037	 -0,025	 -37,638	 268,400	 
49,198	 -49,037	 -0,025	 -37,638	 268,500	 
49,205	 -49,037	 -0,025	 -37,639	 268,600	 
49,199	 -49,040	 -0,025	 -37,634	 268,700	 
49,204	 -49,037	 -0,024	 -37,635	 268,800	 
49,208	 -49,035	 -0,025	 -37,634	 268,900	 
49,207	 -49,035	 -0,025	 -37,636	 269,000	 
49,207	 -49,034	 -0,025	 -37,634	 269,100	 
49,211	 -49,031	 -0,025	 -37,630	 269,200	 
49,209	 -49,032	 -0,025	 -37,632	 269,300	 
49,218	 -49,031	 -0,025	 -37,631	 269,400	 
49,219	 -49,029	 -0,025	 -37,631	 269,500	 
49,218	 -49,026	 -0,025	 -37,630	 269,600	 
49,217	 -49,027	 -0,025	 -37,625	 269,700	 
49,219	 -49,029	 -0,025	 -37,628	 269,800	 
49,219	 -49,025	 -0,025	 -37,630	 269,900	 
49,220	 -49,027	 -0,025	 -37,627	 270,000	 
49,222	 -49,024	 -0,025	 -37,625	 270,100	 
49,222	 -49,023	 -0,025	 -37,624	 270,200	 
49,223	 -49,023	 -0,025	 -37,623	 270,300	 
49,228	 -49,020	 -0,025	 -37,624	 270,400	 
49,229	 -49,018	 -0,025	 -37,623	 270,500	 
49,235	 -49,019	 -0,025	 -37,620	 270,600	 
49,240	 -49,018	 -0,025	 -37,620	 270,700	 
49,240	 -49,015	 -0,025	 -37,621	 270,800	 
49,240	 -49,014	 -0,025	 -37,621	 270,900	 
49,240	 -49,016	 -0,025	 -37,619	 271,000	 
49,240	 -49,013	 -0,025	 -37,616	 271,100	 
49,245	 -49,011	 -0,025	 -37,619	 271,200	 
49,242	 -49,011	 -0,025	 -37,616	 271,300	 
49,241	 -49,011	 -0,025	 -37,613	 271,400	 
49,244	 -49,011	 -0,025	 -37,614	 271,500	 
49,240	 -49,008	 -0,025	 -37,612	 271,600	 
49,246	 -49,005	 -0,025	 -37,612	 271,700	 
49,241	 -49,006	 -0,025	 -37,610	 271,800	 
49,240	 -49,006	 -0,025	 -37,613	 271,900	 
49,244	 -49,003	 -0,025	 -37,615	 272,000	 
49,248	 -49,001	 -0,025	 -37,609	 272,100	 
49,250	 -49,004	 -0,025	 -37,608	 272,200	 
49,241	 -49,000	 -0,025	 -37,608	 272,300	 
49,248	 -49,000	 -0,025	 -37,610	 272,400	 
49,250	 -48,999	 -0,025	 -37,608	 272,500	 
49,251	 -48,998	 -0,025	 -37,602	 272,600	 
49,252	 -48,996	 -0,025	 -37,604	 272,700	 
49,253	 -48,995	 -0,025	 -37,605	 272,800	 
49,259	 -48,995	 -0,025	 -37,605	 272,900	 
49,256	 -48,992	 -0,024	 -37,605	 273,000	 
49,257	 -48,995	 -0,025	 -37,601	 273,100	 
49,261	 -48,992	 -0,025	 -37,601	 273,200	 
49,262	 -48,992	 -0,025	 -37,602	 273,300	 
49,264	 -48,988	 -0,025	 -37,596	 273,400	 
49,266	 -48,988	 -0,025	 -37,602	 273,500	 
49,264	 -48,988	 -0,025	 -37,596	 273,600	 
49,265	 -48,988	 -0,025	 -37,596	 273,700	 
49,263	 -48,986	 -0,025	 -37,596	 273,800	 
49,266	 -48,984	 -0,025	 -37,596	 273,900	 
49,266	 -48,984	 -0,025	 -37,596	 274,000	 
49,268	 -48,985	 -0,025	 -37,594	 274,100	 
49,270	 -48,983	 -0,025	 -37,594	 274,200	 
49,272	 -48,979	 -0,025	 -37,593	 274,300	 
49,272	 -48,979	 -0,025	 -37,592	 274,400	 
49,276	 -48,979	 -0,025	 -37,592	 274,500	 
49,277	 -48,981	 -0,025	 -37,589	 274,600	 
49,272	 -48,976	 -0,025	 -37,590	 274,700	 
49,270	 -48,975	 -0,025	 -37,590	 274,800	 
49,272	 -48,977	 -0,025	 -37,588	 274,900	 
49,272	 -48,974	 -0,025	 -37,589	 275,000	 
49,275	 -48,970	 -0,025	 -37,582	 275,100	 
49,280	 -48,972	 -0,025	 -37,586	 275,200	 
49,281	 -48,974	 -0,025	 -37,586	 275,300	 
49,278	 -48,972	 -0,025	 -37,586	 275,400	 
49,279	 -48,970	 -0,025	 -37,584	 275,500	 
49,285	 -48,970	 -0,025	 -37,580	 275,600	 
49,279	 -48,967	 -0,025	 -37,578	 275,700	 
49,277	 -48,967	 -0,025	 -37,575	 275,800	 
49,279	 -48,965	 -0,026	 -37,581	 275,900	 
49,279	 -48,966	 -0,025	 -37,580	 276,000	 
49,278	 -48,963	 -0,025	 -37,575	 276,100	 
49,279	 -48,963	 -0,025	 -37,579	 276,200	 
49,283	 -48,959	 -0,025	 -37,579	 276,300	 
49,289	 -48,957	 -0,025	 -37,578	 276,400	 
49,285	 -48,960	 -0,025	 -37,577	 276,500	 
49,286	 -48,959	 -0,025	 -37,574	 276,600	 
49,286	 -48,957	 -0,025	 -37,578	 276,700	 
49,287	 -48,956	 -0,025	 -37,572	 276,800	 
49,289	 -48,956	 -0,025	 -37,578	 276,900	 
49,294	 -48,955	 -0,025	 -37,576	 277,000	 
49,295	 -48,955	 -0,025	 -37,571	 277,100	 
49,301	 -48,953	 -0,025	 -37,572	 277,200	 
49,303	 -48,953	 -0,025	 -37,570	 277,300	 
49,310	 -48,950	 -0,024	 -37,572	 277,400	 
49,309	 -48,950	 -0,025	 -37,573	 277,500	 
49,313	 -48,950	 -0,025	 -37,566	 277,600	 
49,311	 -48,950	 -0,025	 -37,564	 277,700	 
49,316	 -48,944	 -0,025	 -37,568	 277,800	 
49,318	 -48,946	 -0,025	 -37,570	 277,900	 
49,323	 -48,944	 -0,025	 -37,568	 278,000	 
49,321	 -48,944	 -0,025	 -37,564	 278,100	 
49,319	 -48,939	 -0,025	 -37,564	 278,200	 
49,323	 -48,939	 -0,025	 -37,564	 278,300	 
49,322	 -48,941	 -0,025	 -37,564	 278,400	 
49,324	 -48,937	 -0,025	 -37,562	 278,500	 
49,322	 -48,936	 -0,025	 -37,560	 278,600	 
49,321	 -48,934	 -0,025	 -37,560	 278,700	 
49,321	 -48,935	 -0,025	 -37,561	 278,800	 
49,321	 -48,934	 -0,025	 -37,559	 278,900	 
49,318	 -48,933	 -0,025	 -37,557	 279,000	 
49,321	 -48,929	 -0,025	 -37,556	 279,100	 
49,322	 -48,932	 -0,025	 -37,555	 279,200	 
49,322	 -48,931	 -0,025	 -37,555	 279,300	 
49,322	 -48,929	 -0,025	 -37,553	 279,400	 
49,323	 -48,928	 -0,025	 -37,557	 279,500	 
49,323	 -48,927	 -0,025	 -37,552	 279,600	 
49,318	 -48,927	 -0,025	 -37,553	 279,700	 
49,325	 -48,923	 -0,025	 -37,552	 279,800	 
49,321	 -48,922	 -0,025	 -37,553	 279,900	 
49,321	 -48,924	 -0,025	 -37,552	 280,000	 
49,321	 -48,923	 -0,025	 -37,546	 280,100	 
49,322	 -48,920	 -0,025	 -37,547	 280,200	 
49,318	 -48,920	 -0,024	 -37,548	 280,300	 
49,319	 -48,920	 -0,025	 -37,546	 280,400	 
49,324	 -48,917	 -0,025	 -37,546	 280,500	 
49,318	 -48,916	 -0,025	 -37,544	 280,600	 
49,323	 -48,915	 -0,025	 -37,544	 280,700	 
49,323	 -48,917	 -0,025	 -37,544	 280,800	 
49,325	 -48,915	 -0,025	 -37,545	 280,900	 
49,332	 -48,914	 -0,025	 -37,546	 281,000	 
49,331	 -48,912	 -0,025	 -37,542	 281,100	 
49,333	 -48,912	 -0,025	 -37,539	 281,200	 
49,332	 -48,911	 -0,025	 -37,542	 281,300	 
49,330	 -48,912	 -0,025	 -37,542	 281,400	 
49,334	 -48,910	 -0,025	 -37,541	 281,500	 
49,334	 -48,911	 -0,025	 -37,537	 281,600	 
49,338	 -48,908	 -0,025	 -37,538	 281,700	 
49,341	 -48,905	 -0,025	 -37,537	 281,800	 
49,344	 -48,903	 -0,025	 -37,536	 281,900	 
49,344	 -48,902	 -0,025	 -37,533	 282,000	 
49,340	 -48,904	 -0,025	 -37,532	 282,100	 
49,344	 -48,899	 -0,025	 -37,535	 282,200	 
49,347	 -48,899	 -0,025	 -37,535	 282,300	 
49,349	 -48,900	 -0,024	 -37,531	 282,400	 
49,347	 -48,897	 -0,025	 -37,533	 282,500	 
49,349	 -48,897	 -0,025	 -37,532	 282,600	 
49,345	 -48,897	 -0,025	 -37,531	 282,700	 
49,345	 -48,895	 -0,025	 -37,531	 282,800	 
49,345	 -48,893	 -0,025	 -37,527	 282,900	 
49,347	 -48,890	 -0,025	 -37,531	 283,000	 
49,347	 -48,892	 -0,025	 -37,526	 283,100	 
49,347	 -48,891	 -0,025	 -37,524	 283,200	 
49,349	 -48,888	 -0,025	 -37,525	 283,300	 
49,349	 -48,887	 -0,025	 -37,526	 283,400	 
49,347	 -48,891	 -0,025	 -37,524	 283,500	 
49,349	 -48,887	 -0,025	 -37,522	 283,600	 
49,344	 -48,885	 -0,025	 -37,520	 283,700	 
49,349	 -48,884	 -0,025	 -37,522	 283,800	 
49,348	 -48,884	 -0,025	 -37,520	 283,900	 
49,349	 -48,884	 -0,025	 -37,521	 284,000	 
49,348	 -48,881	 -0,025	 -37,518	 284,100	 
49,348	 -48,881	 -0,025	 -37,518	 284,200	 
49,347	 -48,883	 -0,025	 -37,517	 284,300	 
49,347	 -48,878	 -0,025	 -37,518	 284,400	 
49,349	 -48,877	 -0,025	 -37,516	 284,500	 
49,349	 -48,877	 -0,025	 -37,515	 284,600	 
49,349	 -48,878	 -0,025	 -37,513	 284,700	 
49,352	 -48,877	 -0,025	 -37,515	 284,800	 
49,354	 -48,874	 -0,025	 -37,513	 284,900	 
49,356	 -48,875	 -0,024	 -37,513	 285,000	 
49,356	 -48,876	 -0,024	 -37,508	 285,100	 
49,360	 -48,874	 -0,025	 -37,509	 285,200	 
49,362	 -48,871	 -0,025	 -37,512	 285,300	 
49,361	 -48,870	 -0,025	 -37,509	 285,400	 
49,362	 -48,870	 -0,025	 -37,509	 285,500	 
49,362	 -48,867	 -0,025	 -37,506	 285,600	 
49,360	 -48,864	 -0,025	 -37,504	 285,700	 
49,362	 -48,865	 -0,025	 -37,508	 285,800	 
49,360	 -48,868	 -0,025	 -37,506	 285,900	 
49,362	 -48,867	 -0,025	 -37,506	 286,000	 
49,360	 -48,861	 -0,024	 -37,505	 286,100	 
49,362	 -48,861	 -0,025	 -37,503	 286,200	 
49,354	 -48,861	 -0,025	 -37,502	 286,300	 
49,361	 -48,860	 -0,025	 -37,503	 286,400	 
49,361	 -48,858	 -0,025	 -37,500	 286,500	 
49,362	 -48,857	 -0,025	 -37,500	 286,600	 
49,360	 -48,857	 -0,025	 -37,498	 286,700	 
49,356	 -48,857	 -0,025	 -37,500	 286,800	 
49,360	 -48,851	 -0,025	 -37,500	 286,900	 
49,363	 -48,856	 -0,025	 -37,498	 287,000	 
49,362	 -48,854	 -0,025	 -37,495	 287,100	 
49,365	 -48,851	 -0,025	 -37,494	 287,200	 
49,361	 -48,853	 -0,025	 -37,497	 287,300	 
49,364	 -48,853	 -0,025	 -37,498	 287,400	 
49,362	 -48,847	 -0,025	 -37,491	 287,500	 
49,366	 -48,847	 -0,025	 -37,491	 287,600	 
49,369	 -48,847	 -0,025	 -37,491	 287,700	 
49,372	 -48,847	 -0,025	 -37,493	 287,800	 
49,378	 -48,844	 -0,025	 -37,489	 287,900	 
49,380	 -48,840	 -0,025	 -37,487	 288,000	 
49,382	 -48,842	 -0,025	 -37,487	 288,100	 
49,384	 -48,843	 -0,025	 -37,487	 288,200	 
49,386	 -48,839	 -0,025	 -37,487	 288,300	 
49,394	 -48,838	 -0,025	 -37,486	 288,400	 
49,390	 -48,839	 -0,025	 -37,482	 288,500	 
49,393	 -48,840	 -0,025	 -37,485	 288,600	 
49,395	 -48,839	 -0,025	 -37,481	 288,700	 
49,393	 -48,837	 -0,025	 -37,487	 288,800	 
49,393	 -48,835	 -0,025	 -37,483	 288,900	 
49,393	 -48,835	 -0,024	 -37,478	 289,000	 
49,393	 -48,834	 -0,025	 -37,478	 289,100	 
49,399	 -48,832	 -0,024	 -37,479	 289,200	 
49,397	 -48,832	 -0,025	 -37,479	 289,300	 
49,397	 -48,829	 -0,025	 -37,479	 289,400	 
49,393	 -48,829	 -0,025	 -37,473	 289,500	 
49,396	 -48,827	 -0,025	 -37,476	 289,600	 
49,395	 -48,828	 -0,025	 -37,477	 289,700	 
49,395	 -48,828	 -0,025	 -37,473	 289,800	 
49,397	 -48,826	 -0,025	 -37,476	 289,900	 
49,399	 -48,824	 -0,025	 -37,472	 290,000	 
49,399	 -48,822	 -0,025	 -37,472	 290,100	 
49,398	 -48,821	 -0,025	 -37,470	 290,200	 
49,398	 -48,820	 -0,025	 -37,474	 290,300	 
49,404	 -48,820	 -0,024	 -37,469	 290,400	 
49,404	 -48,817	 -0,025	 -37,465	 290,500	 
49,400	 -48,821	 -0,025	 -37,468	 290,600	 
49,403	 -48,817	 -0,025	 -37,469	 290,700	 
49,403	 -48,814	 -0,025	 -37,470	 290,800	 
49,406	 -48,814	 -0,025	 -37,468	 290,900	 
49,404	 -48,816	 -0,025	 -37,463	 291,000	 
49,406	 -48,813	 -0,025	 -37,464	 291,100	 
49,404	 -48,812	 -0,025	 -37,464	 291,200	 
49,408	 -48,811	 -0,025	 -37,465	 291,300	 
49,407	 -48,812	 -0,025	 -37,463	 291,400	 
49,408	 -48,808	 -0,025	 -37,461	 291,500	 
49,407	 -48,808	 -0,025	 -37,461	 291,600	 
49,405	 -48,808	 -0,025	 -37,461	 291,700	 
49,400	 -48,811	 -0,025	 -37,458	 291,800	 
49,404	 -48,804	 -0,025	 -37,462	 291,900	 
49,400	 -48,803	 -0,025	 -37,458	 292,000	 
49,404	 -48,807	 -0,025	 -37,458	 292,100	 
49,399	 -48,803	 -0,025	 -37,454	 292,200	 
49,400	 -48,801	 -0,025	 -37,458	 292,300	 
49,400	 -48,803	 -0,025	 -37,458	 292,400	 
49,406	 -48,803	 -0,025	 -37,452	 292,500	 
49,404	 -48,799	 -0,025	 -37,454	 292,600	 
49,413	 -48,796	 -0,025	 -37,454	 292,700	 
49,417	 -48,798	 -0,025	 -37,454	 292,800	 
49,423	 -48,798	 -0,025	 -37,454	 292,900	 
49,425	 -48,796	 -0,025	 -37,448	 293,000	 
49,431	 -48,795	 -0,025	 -37,450	 293,100	 
49,432	 -48,792	 -0,025	 -37,450	 293,200	 
49,432	 -48,795	 -0,025	 -37,448	 293,300	 
49,434	 -48,791	 -0,025	 -37,449	 293,400	 
49,437	 -48,789	 -0,025	 -37,446	 293,500	 
49,438	 -48,788	 -0,025	 -37,445	 293,600	 
49,437	 -48,789	 -0,025	 -37,445	 293,700	 
49,439	 -48,786	 -0,025	 -37,447	 293,800	 
49,437	 -48,784	 -0,025	 -37,445	 293,900	 
49,437	 -48,786	 -0,025	 -37,441	 294,000	 
49,442	 -48,786	 -0,025	 -37,443	 294,100	 
49,447	 -48,781	 -0,025	 -37,443	 294,200	 
49,444	 -48,781	 -0,025	 -37,443	 294,300	 
49,447	 -48,779	 -0,025	 -37,443	 294,400	 
49,451	 -48,781	 -0,025	 -37,437	 294,500	 
49,449	 -48,779	 -0,025	 -37,436	 294,600	 
49,454	 -48,775	 -0,025	 -37,437	 294,700	 
49,454	 -48,775	 -0,025	 -37,437	 294,800	 
49,454	 -48,774	 -0,025	 -37,435	 294,900	 
49,454	 -48,772	 -0,025	 -37,433	 295,000	 
49,454	 -48,773	 -0,025	 -37,430	 295,100	 
49,454	 -48,773	 -0,025	 -37,434	 295,200	 
49,454	 -48,772	 -0,025	 -37,433	 295,300	 
49,455	 -48,770	 -0,025	 -37,433	 295,400	 
49,455	 -48,768	 -0,025	 -37,430	 295,500	 
49,462	 -48,766	 -0,025	 -37,432	 295,600	 
49,466	 -48,769	 -0,024	 -37,428	 295,700	 
49,473	 -48,765	 -0,025	 -37,430	 295,800	 
49,477	 -48,764	 -0,025	 -37,429	 295,900	 
49,477	 -48,763	 -0,025	 -37,427	 296,000	 
49,482	 -48,761	 -0,025	 -37,421	 296,100	 
49,481	 -48,761	 -0,025	 -37,426	 296,200	 
49,484	 -48,760	 -0,025	 -37,426	 296,300	 
49,484	 -48,761	 -0,025	 -37,426	 296,400	 
49,481	 -48,760	 -0,025	 -37,420	 296,500	 
49,485	 -48,756	 -0,025	 -37,420	 296,600	 
49,487	 -48,758	 -0,025	 -37,424	 296,700	 
49,489	 -48,758	 -0,025	 -37,421	 296,800	 
49,492	 -48,754	 -0,025	 -37,421	 296,900	 
49,494	 -48,751	 -0,025	 -37,419	 297,000	 
49,497	 -48,751	 -0,025	 -37,419	 297,100	 
49,496	 -48,751	 -0,025	 -37,418	 297,200	 
49,494	 -48,750	 -0,025	 -37,418	 297,300	 
49,494	 -48,745	 -0,025	 -37,417	 297,400	 
49,486	 -48,744	 -0,025	 -37,417	 297,500	 
49,489	 -48,747	 -0,025	 -37,414	 297,600	 
49,487	 -48,747	 -0,025	 -37,413	 297,700	 
49,489	 -48,743	 -0,025	 -37,415	 297,800	 
49,487	 -48,743	 -0,025	 -37,416	 297,900	 
49,483	 -48,744	 -0,025	 -37,410	 298,000	 
49,481	 -48,743	 -0,025	 -37,411	 298,100	 
49,481	 -48,742	 -0,025	 -37,410	 298,200	 
49,483	 -48,740	 -0,025	 -37,412	 298,300	 
49,478	 -48,738	 -0,025	 -37,412	 298,400	 
49,473	 -48,738	 -0,025	 -37,406	 298,500	 
49,473	 -48,737	 -0,025	 -37,408	 298,600	 
49,473	 -48,736	 -0,025	 -37,410	 298,700	 
49,474	 -48,735	 -0,025	 -37,408	 298,800	 
49,476	 -48,733	 -0,025	 -37,407	 298,900	 
49,477	 -48,730	 -0,025	 -37,404	 299,000	 
49,478	 -48,729	 -0,025	 -37,404	 299,100	 
49,478	 -48,730	 -0,025	 -37,399	 299,200	 
49,485	 -48,730	 -0,025	 -37,399	 299,300	 
49,494	 -48,726	 -0,025	 -37,404	 299,400	 
49,498	 -48,726	 -0,025	 -37,398	 299,500	 
49,499	 -48,723	 -0,025	 -37,398	 299,600	 
49,502	 -48,725	 -0,025	 -37,398	 299,700	 
49,498	 -48,721	 -0,025	 -37,399	 299,800	 
49,495	 -48,720	 -0,025	 -37,399	 299,900	 
49,494	 -48,722	 -0,025	 -37,393	 300,000	 
49,492	 -48,722	 -0,025	 -37,393	 300,100	 
49,492	 -48,719	 -0,025	 -37,397	 300,200	 
49,489	 -48,718	 -0,025	 -37,393	 300,300	 
49,492	 -48,718	 -0,025	 -37,393	 300,400	 
49,492	 -48,716	 -0,025	 -37,389	 300,500	 
49,492	 -48,715	 -0,025	 -37,393	 300,600	 
49,492	 -48,714	 -0,025	 -37,392	 300,700	 
49,487	 -48,712	 -0,025	 -37,389	 300,800	 
49,481	 -48,714	 -0,025	 -37,393	 300,900	 
49,479	 -48,708	 -0,025	 -37,389	 301,000	 
49,476	 -48,710	 -0,025	 -37,388	 301,100	 
49,474	 -48,708	 -0,025	 -37,386	 301,200	 
49,470	 -48,707	 -0,025	 -37,388	 301,300	 
49,462	 -48,708	 -0,025	 -37,389	 301,400	 
49,467	 -48,704	 -0,025	 -37,384	 301,500	 
49,462	 -48,707	 -0,025	 -37,382	 301,600	 
49,470	 -48,704	 -0,025	 -37,383	 301,700	 
49,467	 -48,705	 -0,025	 -37,387	 301,800	 
49,470	 -48,705	 -0,025	 -37,384	 301,900	 
49,473	 -48,703	 -0,025	 -37,375	 302,000	 
49,477	 -48,700	 -0,025	 -37,380	 302,100	 
49,481	 -48,698	 -0,025	 -37,382	 302,200	 
49,485	 -48,701	 -0,025	 -37,379	 302,300	 
49,487	 -48,700	 -0,026	 -37,381	 302,400	 
49,487	 -48,695	 -0,025	 -37,376	 302,500	 
49,487	 -48,693	 -0,025	 -37,377	 302,600	 
49,486	 -48,696	 -0,025	 -37,375	 302,700	 
49,486	 -48,693	 -0,025	 -37,375	 302,800	 
49,485	 -48,689	 -0,025	 -37,375	 302,900	 
49,484	 -48,690	 -0,025	 -37,371	 303,000	 
49,482	 -48,693	 -0,025	 -37,371	 303,100	 
49,480	 -48,693	 -0,025	 -37,374	 303,200	 
49,479	 -48,689	 -0,025	 -37,372	 303,300	 
49,478	 -48,687	 -0,025	 -37,367	 303,400	 
49,479	 -48,689	 -0,025	 -37,369	 303,500	 
49,481	 -48,691	 -0,025	 -37,367	 303,600	 
49,481	 -48,686	 -0,025	 -37,369	 303,700	 
49,480	 -48,684	 -0,025	 -37,368	 303,800	 
49,478	 -48,687	 -0,025	 -37,364	 303,900	 
49,478	 -48,682	 -0,025	 -37,363	 304,000	 
49,478	 -48,684	 -0,025	 -37,366	 304,100	 
49,477	 -48,681	 -0,025	 -37,364	 304,200	 
49,476	 -48,682	 -0,025	 -37,366	 304,300	 
49,474	 -48,680	 -0,025	 -37,362	 304,400	 
49,478	 -48,677	 -0,025	 -37,360	 304,500	 
49,476	 -48,679	 -0,025	 -37,361	 304,600	 
49,481	 -48,678	 -0,024	 -37,359	 304,700	 
49,478	 -48,678	 -0,025	 -37,360	 304,800	 
49,481	 -48,674	 -0,025	 -37,357	 304,900	 
49,484	 -48,672	 -0,025	 -37,357	 305,000	 
49,481	 -48,672	 -0,025	 -37,355	 305,100	 
49,483	 -48,671	 -0,025	 -37,355	 305,200	 
49,489	 -48,670	 -0,025	 -37,360	 305,300	 
49,492	 -48,671	 -0,025	 -37,355	 305,400	 
49,492	 -48,671	 -0,025	 -37,351	 305,500	 
49,492	 -48,669	 -0,025	 -37,351	 305,600	 
49,495	 -48,666	 -0,025	 -37,351	 305,700	 
49,498	 -48,664	 -0,025	 -37,352	 305,800	 
49,499	 -48,664	 -0,025	 -37,348	 305,900	 
49,497	 -48,663	 -0,025	 -37,347	 306,000	 
49,498	 -48,663	 -0,025	 -37,351	 306,100	 
49,499	 -48,663	 -0,025	 -37,349	 306,200	 
49,505	 -48,664	 -0,025	 -37,347	 306,300	 
49,509	 -48,660	 -0,025	 -37,344	 306,400	 
49,514	 -48,657	 -0,025	 -37,347	 306,500	 
49,515	 -48,659	 -0,025	 -37,345	 306,600	 
49,520	 -48,659	 -0,025	 -37,345	 306,700	 
49,514	 -48,657	 -0,025	 -37,344	 306,800	 
49,520	 -48,657	 -0,025	 -37,344	 306,900	 
49,519	 -48,656	 -0,025	 -37,344	 307,000	 
49,529	 -48,652	 -0,024	 -37,342	 307,100	 
49,531	 -48,650	 -0,025	 -37,340	 307,200	 
49,538	 -48,651	 -0,025	 -37,344	 307,300	 
49,536	 -48,652	 -0,025	 -37,338	 307,400	 
49,544	 -48,650	 -0,025	 -37,340	 307,500	 
49,542	 -48,649	 -0,025	 -37,336	 307,600	 
49,547	 -48,647	 -0,025	 -37,338	 307,700	 
49,547	 -48,643	 -0,025	 -37,338	 307,800	 
49,549	 -48,645	 -0,025	 -37,336	 307,900	 
49,551	 -48,643	 -0,025	 -37,333	 308,000	 
49,549	 -48,643	 -0,025	 -37,333	 308,100	 
49,549	 -48,644	 -0,025	 -37,333	 308,200	 
49,553	 -48,643	 -0,025	 -37,333	 308,300	 
49,548	 -48,640	 -0,025	 -37,330	 308,400	 
49,550	 -48,639	 -0,025	 -37,332	 308,500	 
49,550	 -48,639	 -0,025	 -37,329	 308,600	 
49,550	 -48,637	 -0,025	 -37,332	 308,700	 
49,546	 -48,636	 -0,025	 -37,331	 308,800	 
49,547	 -48,636	 -0,025	 -37,329	 308,900	 
49,544	 -48,638	 -0,025	 -37,327	 309,000	 
49,547	 -48,634	 -0,025	 -37,328	 309,100	 
49,543	 -48,627	 -0,025	 -37,328	 309,200	 
49,543	 -48,632	 -0,025	 -37,328	 309,300	 
49,541	 -48,633	 -0,025	 -37,323	 309,400	 
49,543	 -48,633	 -0,025	 -37,325	 309,500	 
49,543	 -48,625	 -0,025	 -37,324	 309,600	 
49,551	 -48,626	 -0,025	 -37,325	 309,700	 
49,549	 -48,627	 -0,025	 -37,323	 309,800	 
49,556	 -48,626	 -0,025	 -37,319	 309,900	 
49,559	 -48,623	 -0,025	 -37,323	 310,000	 
49,563	 -48,624	 -0,025	 -37,323	 310,100	 
49,566	 -48,623	 -0,025	 -37,320	 310,200	 
49,573	 -48,624	 -0,025	 -37,320	 310,300	 
49,573	 -48,620	 -0,025	 -37,317	 310,400	 
49,577	 -48,619	 -0,025	 -37,316	 310,500	 
49,581	 -48,619	 -0,025	 -37,316	 310,600	 
49,584	 -48,617	 -0,025	 -37,315	 310,700	 
49,581	 -48,617	 -0,026	 -37,315	 310,800	 
49,591	 -48,616	 -0,025	 -37,312	 310,900	 
49,591	 -48,615	 -0,025	 -37,312	 311,000	 
49,592	 -48,615	 -0,025	 -37,312	 311,100	 
49,592	 -48,610	 -0,025	 -37,315	 311,200	 
49,597	 -48,612	 -0,025	 -37,313	 311,300	 
49,588	 -48,612	 -0,025	 -37,308	 311,400	 
49,589	 -48,611	 -0,025	 -37,308	 311,500	 
49,586	 -48,606	 -0,025	 -37,310	 311,600	 
49,587	 -48,606	 -0,025	 -37,309	 311,700	 
49,586	 -48,606	 -0,025	 -37,307	 311,800	 
49,587	 -48,603	 -0,025	 -37,305	 311,900	 
49,584	 -48,604	 -0,025	 -37,305	 312,000	 
49,589	 -48,603	 -0,025	 -37,307	 312,100	 
49,586	 -48,603	 -0,025	 -37,305	 312,200	 
49,589	 -48,599	 -0,025	 -37,305	 312,300	 
49,587	 -48,600	 -0,025	 -37,303	 312,400	 
49,592	 -48,600	 -0,025	 -37,303	 312,500	 
49,589	 -48,599	 -0,025	 -37,302	 312,600	 
49,591	 -48,596	 -0,025	 -37,303	 312,700	 
49,592	 -48,596	 -0,025	 -37,303	 312,800	 
49,594	 -48,596	 -0,025	 -37,298	 312,900	 
49,593	 -48,596	 -0,025	 -37,298	 313,000	 
49,592	 -48,592	 -0,025	 -37,298	 313,100	 
49,597	 -48,591	 -0,025	 -37,299	 313,200	 
49,601	 -48,591	 -0,025	 -37,298	 313,300	 
49,595	 -48,591	 -0,025	 -37,293	 313,400	 
49,596	 -48,589	 -0,025	 -37,296	 313,500	 
49,594	 -48,588	 -0,025	 -37,296	 313,600	 
49,597	 -48,589	 -0,025	 -37,295	 313,700	 
49,592	 -48,587	 -0,025	 -37,294	 313,800	 
49,595	 -48,587	 -0,025	 -37,291	 313,900	 
49,588	 -48,584	 -0,025	 -37,291	 314,000	 
49,586	 -48,584	 -0,025	 -37,288	 314,100	 
49,580	 -48,583	 -0,025	 -37,288	 314,200	 
49,584	 -48,578	 -0,025	 -37,289	 314,300	 
49,578	 -48,578	 -0,025	 -37,287	 314,400	 
49,577	 -48,578	 -0,025	 -37,288	 314,500	 
49,574	 -48,576	 -0,025	 -37,286	 314,600	 
49,572	 -48,576	 -0,025	 -37,287	 314,700	 
49,570	 -48,576	 -0,025	 -37,286	 314,800	 
49,571	 -48,578	 -0,025	 -37,281	 314,900	 
49,570	 -48,575	 -0,026	 -37,281	 315,000	 
49,575	 -48,572	 -0,025	 -37,281	 315,100	 
49,575	 -48,569	 -0,025	 -37,281	 315,200	 
49,579	 -48,572	 -0,025	 -37,281	 315,300	 
49,577	 -48,569	 -0,025	 -37,277	 315,400	 
49,581	 -48,568	 -0,025	 -37,279	 315,500	 
49,583	 -48,566	 -0,025	 -37,279	 315,600	 
49,585	 -48,568	 -0,025	 -37,279	 315,700	 
49,585	 -48,567	 -0,025	 -37,276	 315,800	 
49,586	 -48,562	 -0,025	 -37,276	 315,900	 
49,588	 -48,561	 -0,025	 -37,272	 316,000	 
49,590	 -48,562	 -0,025	 -37,272	 316,100	 
49,588	 -48,559	 -0,025	 -37,274	 316,200	 
49,591	 -48,561	 -0,025	 -37,274	 316,300	 
49,587	 -48,560	 -0,025	 -37,270	 316,400	 
49,587	 -48,559	 -0,025	 -37,270	 316,500	 
49,586	 -48,559	 -0,025	 -37,270	 316,600	 
49,584	 -48,556	 -0,024	 -37,272	 316,700	 
49,581	 -48,557	 -0,025	 -37,272	 316,800	 
49,581	 -48,555	 -0,025	 -37,268	 316,900	 
49,581	 -48,554	 -0,025	 -37,268	 317,000	 
49,586	 -48,554	 -0,025	 -37,269	 317,100	 
49,581	 -48,551	 -0,025	 -37,268	 317,200	 
49,588	 -48,554	 -0,025	 -37,268	 317,300	 
49,592	 -48,549	 -0,025	 -37,262	 317,400	 
49,595	 -48,547	 -0,025	 -37,264	 317,500	 
49,599	 -48,547	 -0,025	 -37,263	 317,600	 
49,597	 -48,547	 -0,024	 -37,263	 317,700	 
49,602	 -48,546	 -0,025	 -37,261	 317,800	 
49,607	 -48,547	 -0,025	 -37,261	 317,900	 
49,611	 -48,545	 -0,025	 -37,260	 318,000	 
49,614	 -48,547	 -0,025	 -37,260	 318,100	 
49,624	 -48,540	 -0,025	 -37,259	 318,200	 
49,623	 -48,540	 -0,025	 -37,261	 318,300	 
49,627	 -48,541	 -0,025	 -37,258	 318,400	 
49,625	 -48,543	 -0,025	 -37,257	 318,500	 
49,626	 -48,537	 -0,025	 -37,257	 318,600	 
49,627	 -48,537	 -0,025	 -37,257	 318,700	 
49,629	 -48,538	 -0,025	 -37,257	 318,800	 
49,628	 -48,536	 -0,025	 -37,253	 318,900	 
49,630	 -48,532	 -0,025	 -37,251	 319,000	 
49,630	 -48,532	 -0,025	 -37,257	 319,100	 
49,634	 -48,534	 -0,025	 -37,249	 319,200	 
49,634	 -48,532	 -0,025	 -37,250	 319,300	 
49,635	 -48,531	 -0,025	 -37,247	 319,400	 
49,637	 -48,529	 -0,025	 -37,249	 319,500	 
49,638	 -48,530	 -0,025	 -37,245	 319,600	 
49,637	 -48,526	 -0,025	 -37,248	 319,700	 
49,636	 -48,525	 -0,025	 -37,245	 319,800	 
49,638	 -48,525	 -0,025	 -37,244	 319,900	 
49,635	 -48,527	 -0,025	 -37,243	 320,000	 
49,632	 -48,524	 -0,025	 -37,244	 320,100	 
49,631	 -48,521	 -0,025	 -37,243	 320,200	 
49,631	 -48,518	 -0,025	 -37,245	 320,300	 
49,631	 -48,521	 -0,025	 -37,239	 320,400	 
49,630	 -48,519	 -0,025	 -37,239	 320,500	 
49,627	 -48,518	 -0,025	 -37,239	 320,600	 
49,630	 -48,518	 -0,025	 -37,240	 320,700	 
49,633	 -48,518	 -0,025	 -37,237	 320,800	 
49,634	 -48,515	 -0,024	 -37,236	 320,900	 
49,636	 -48,512	 -0,025	 -37,235	 321,000	 
49,636	 -48,514	 -0,025	 -37,236	 321,100	 
49,638	 -48,514	 -0,025	 -37,236	 321,200	 
49,638	 -48,510	 -0,025	 -37,231	 321,300	 
49,641	 -48,510	 -0,025	 -37,235	 321,400	 
49,643	 -48,510	 -0,025	 -37,235	 321,500	 
49,643	 -48,509	 -0,025	 -37,231	 321,600	 
49,641	 -48,508	 -0,025	 -37,233	 321,700	 
49,642	 -48,504	 -0,025	 -37,230	 321,800	 
49,643	 -48,504	 -0,025	 -37,229	 321,900	 
49,638	 -48,504	 -0,025	 -37,223	 322,000	 
49,632	 -48,505	 -0,025	 -37,226	 322,100	 
49,634	 -48,503	 -0,025	 -37,230	 322,200	 
49,630	 -48,502	 -0,025	 -37,226	 322,300	 
49,627	 -48,501	 -0,025	 -37,225	 322,400	 
49,625	 -48,498	 -0,025	 -37,223	 322,500	 
49,623	 -48,498	 -0,025	 -37,226	 322,600	 
49,620	 -48,502	 -0,025	 -37,227	 322,700	 
49,619	 -48,499	 -0,025	 -37,222	 322,800	 
49,616	 -48,498	 -0,025	 -37,222	 322,900	 
49,619	 -48,494	 -0,025	 -37,222	 323,000	 
49,616	 -48,496	 -0,025	 -37,223	 323,100	 
49,611	 -48,494	 -0,025	 -37,222	 323,200	 
49,602	 -48,495	 -0,025	 -37,220	 323,300	 
49,608	 -48,491	 -0,025	 -37,219	 323,400	 
49,603	 -48,491	 -0,025	 -37,217	 323,500	 
49,604	 -48,491	 -0,025	 -37,217	 323,600	 
49,607	 -48,491	 -0,025	 -37,216	 323,700	 
49,610	 -48,490	 -0,025	 -37,213	 323,800	 
49,621	 -48,487	 -0,025	 -37,214	 323,900	 
49,633	 -48,487	 -0,025	 -37,212	 324,000	 
49,641	 -48,489	 -0,025	 -37,214	 324,100	 
49,647	 -48,484	 -0,025	 -37,215	 324,200	 
49,658	 -48,483	 -0,025	 -37,211	 324,300	 
49,662	 -48,484	 -0,025	 -37,211	 324,400	 
49,672	 -48,481	 -0,025	 -37,209	 324,500	 
49,678	 -48,481	 -0,025	 -37,213	 324,600	 
49,680	 -48,480	 -0,025	 -37,211	 324,700	 
49,684	 -48,481	 -0,025	 -37,205	 324,800	 
49,690	 -48,474	 -0,025	 -37,204	 324,900	 
49,693	 -48,476	 -0,025	 -37,206	 325,000	 
49,693	 -48,475	 -0,025	 -37,206	 325,100	 
49,698	 -48,474	 -0,025	 -37,204	 325,200	 
49,696	 -48,474	 -0,025	 -37,201	 325,300	 
49,702	 -48,470	 -0,025	 -37,204	 325,400	 
49,702	 -48,473	 -0,025	 -37,201	 325,500	 
49,704	 -48,471	 -0,025	 -37,200	 325,600	 
49,704	 -48,467	 -0,025	 -37,200	 325,700	 
49,704	 -48,466	 -0,025	 -37,201	 325,800	 
49,708	 -48,466	 -0,025	 -37,198	 325,900	 
49,701	 -48,466	 -0,025	 -37,196	 326,000	 
49,701	 -48,463	 -0,025	 -37,198	 326,100	 
49,700	 -48,463	 -0,025	 -37,200	 326,200	 
49,702	 -48,463	 -0,025	 -37,193	 326,300	 
49,697	 -48,461	 -0,025	 -37,193	 326,400	 
49,691	 -48,457	 -0,025	 -37,194	 326,500	 
49,695	 -48,459	 -0,025	 -37,193	 326,600	 
49,687	 -48,460	 -0,025	 -37,193	 326,700	 
49,693	 -48,459	 -0,025	 -37,191	 326,800	 
49,693	 -48,454	 -0,025	 -37,189	 326,900	 
49,690	 -48,456	 -0,025	 -37,191	 327,000	 
49,690	 -48,454	 -0,025	 -37,189	 327,100	 
49,689	 -48,454	 -0,025	 -37,191	 327,200	 
49,684	 -48,451	 -0,025	 -37,184	 327,300	 
49,683	 -48,452	 -0,025	 -37,189	 327,400	 
49,678	 -48,449	 -0,025	 -37,187	 327,500	 
49,680	 -48,448	 -0,025	 -37,186	 327,600	 
49,679	 -48,446	 -0,025	 -37,187	 327,700	 
49,680	 -48,446	 -0,025	 -37,184	 327,800	 
49,682	 -48,449	 -0,025	 -37,181	 327,900	 
49,678	 -48,445	 -0,025	 -37,183	 328,000	 
49,676	 -48,446	 -0,025	 -37,181	 328,100	 
49,678	 -48,442	 -0,025	 -37,182	 328,200	 
49,673	 -48,445	 -0,025	 -37,180	 328,300	 
49,677	 -48,441	 -0,025	 -37,180	 328,400	 
49,676	 -48,437	 -0,025	 -37,180	 328,500	 
49,674	 -48,437	 -0,025	 -37,180	 328,600	 
49,671	 -48,437	 -0,025	 -37,180	 328,700	 
49,669	 -48,436	 -0,025	 -37,174	 328,800	 
49,667	 -48,435	 -0,025	 -37,180	 328,900	 
49,671	 -48,434	 -0,025	 -37,176	 329,000	 
49,669	 -48,434	 -0,025	 -37,174	 329,100	 
49,671	 -48,433	 -0,025	 -37,174	 329,200	 
49,672	 -48,430	 -0,025	 -37,174	 329,300	 
49,682	 -48,427	 -0,026	 -37,170	 329,400	 
49,693	 -48,430	 -0,025	 -37,171	 329,500	 
49,700	 -48,429	 -0,025	 -37,169	 329,600	 
49,706	 -48,427	 -0,025	 -37,171	 329,700	 
49,712	 -48,426	 -0,025	 -37,169	 329,800	 
49,715	 -48,423	 -0,025	 -37,165	 329,900	 
49,717	 -48,421	 -0,025	 -37,169	 330,000	 
49,719	 -48,421	 -0,025	 -37,169	 330,100	 
49,723	 -48,421	 -0,025	 -37,169	 330,200	 
49,722	 -48,419	 -0,025	 -37,163	 330,300	 
49,721	 -48,416	 -0,025	 -37,164	 330,400	 
49,716	 -48,420	 -0,025	 -37,164	 330,500	 
49,715	 -48,414	 -0,025	 -37,163	 330,600	 
49,713	 -48,418	 -0,025	 -37,165	 330,700	 
49,708	 -48,413	 -0,025	 -37,157	 330,800	 
49,706	 -48,415	 -0,025	 -37,160	 330,900	 
49,704	 -48,415	 -0,025	 -37,160	 331,000	 
49,701	 -48,412	 -0,025	 -37,159	 331,100	 
49,699	 -48,411	 -0,025	 -37,160	 331,200	 
49,695	 -48,411	 -0,025	 -37,156	 331,300	 
49,693	 -48,413	 -0,025	 -37,157	 331,400	 
49,693	 -48,411	 -0,025	 -37,156	 331,500	 
49,690	 -48,406	 -0,025	 -37,156	 331,600	 
49,693	 -48,402	 -0,025	 -37,158	 331,700	 
49,691	 -48,409	 -0,025	 -37,155	 331,800	 
49,691	 -48,407	 -0,025	 -37,151	 331,900	 
49,688	 -48,403	 -0,025	 -37,152	 332,000	 
49,689	 -48,402	 -0,025	 -37,154	 332,100	 
49,688	 -48,404	 -0,025	 -37,154	 332,200	 
49,689	 -48,401	 -0,025	 -37,149	 332,300	 
49,687	 -48,401	 -0,025	 -37,148	 332,400	 
49,689	 -48,399	 -0,025	 -37,149	 332,500	 
49,684	 -48,401	 -0,025	 -37,149	 332,600	 
49,684	 -48,397	 -0,025	 -37,149	 332,700	 
49,680	 -48,395	 -0,025	 -37,144	 332,800	 
49,680	 -48,395	 -0,025	 -37,147	 332,900	 
49,680	 -48,397	 -0,025	 -37,145	 333,000	 
49,687	 -48,394	 -0,025	 -37,145	 333,100	 
49,682	 -48,393	 -0,025	 -37,145	 333,200	 
49,684	 -48,394	 -0,025	 -37,142	 333,300	 
49,683	 -48,392	 -0,025	 -37,143	 333,400	 
49,684	 -48,392	 -0,025	 -37,139	 333,500	 
49,688	 -48,390	 -0,025	 -37,141	 333,600	 
49,688	 -48,388	 -0,025	 -37,142	 333,700	 
49,693	 -48,388	 -0,025	 -37,137	 333,800	 
49,702	 -48,387	 -0,025	 -37,138	 333,900	 
49,699	 -48,385	 -0,025	 -37,138	 334,000	 
49,702	 -48,383	 -0,025	 -37,138	 334,100	 
49,704	 -48,385	 -0,025	 -37,136	 334,200	 
49,713	 -48,380	 -0,025	 -37,136	 334,300	 
49,717	 -48,378	 -0,025	 -37,134	 334,400	 
49,721	 -48,381	 -0,025	 -37,136	 334,500	 
49,720	 -48,378	 -0,024	 -37,132	 334,600	 
49,724	 -48,378	 -0,025	 -37,132	 334,700	 
49,723	 -48,377	 -0,025	 -37,130	 334,800	 
49,728	 -48,375	 -0,025	 -37,127	 334,900	 
49,731	 -48,375	 -0,025	 -37,127	 335,000	 
49,734	 -48,373	 -0,025	 -37,128	 335,100	 
49,728	 -48,371	 -0,025	 -37,132	 335,200	 
49,732	 -48,373	 -0,025	 -37,125	 335,300	 
49,731	 -48,368	 -0,025	 -37,124	 335,400	 
49,733	 -48,371	 -0,025	 -37,125	 335,500	 
49,728	 -48,366	 -0,025	 -37,126	 335,600	 
49,734	 -48,366	 -0,025	 -37,127	 335,700	 
49,733	 -48,366	 -0,025	 -37,119	 335,800	 
49,730	 -48,364	 -0,025	 -37,123	 335,900	 
49,732	 -48,362	 -0,025	 -37,122	 336,000	 
49,731	 -48,362	 -0,025	 -37,123	 336,100	 
49,731	 -48,363	 -0,025	 -37,121	 336,200	 
49,733	 -48,359	 -0,025	 -37,119	 336,300	 
49,735	 -48,358	 -0,025	 -37,116	 336,400	 
49,737	 -48,360	 -0,025	 -37,120	 336,500	 
49,737	 -48,357	 -0,025	 -37,117	 336,600	 
49,739	 -48,357	 -0,025	 -37,118	 336,700	 
49,739	 -48,355	 -0,025	 -37,113	 336,800	 
49,740	 -48,358	 -0,025	 -37,113	 336,900	 
49,744	 -48,353	 -0,025	 -37,112	 337,000	 
49,739	 -48,354	 -0,025	 -37,112	 337,100	 
49,735	 -48,350	 -0,025	 -37,113	 337,200	 
49,739	 -48,353	 -0,025	 -37,112	 337,300	 
49,734	 -48,352	 -0,025	 -37,110	 337,400	 
49,739	 -48,345	 -0,025	 -37,109	 337,500	 
49,740	 -48,347	 -0,025	 -37,111	 337,600	 
49,739	 -48,350	 -0,025	 -37,106	 337,700	 
49,742	 -48,348	 -0,025	 -37,104	 337,800	 
49,738	 -48,345	 -0,025	 -37,107	 337,900	 
49,739	 -48,343	 -0,025	 -37,107	 338,000	 
49,735	 -48,343	 -0,025	 -37,106	 338,100	 
49,737	 -48,343	 -0,025	 -37,103	 338,200	 
49,736	 -48,340	 -0,025	 -37,103	 338,300	 
49,730	 -48,340	 -0,025	 -37,103	 338,400	 
49,739	 -48,341	 -0,025	 -37,103	 338,500	 
49,739	 -48,342	 -0,025	 -37,101	 338,600	 
49,738	 -48,335	 -0,025	 -37,098	 338,700	 
49,739	 -48,336	 -0,025	 -37,099	 338,800	 
49,737	 -48,339	 -0,025	 -37,097	 338,900	 
49,731	 -48,337	 -0,025	 -37,098	 339,000	 
49,735	 -48,333	 -0,025	 -37,097	 339,100	 
49,741	 -48,333	 -0,025	 -37,093	 339,200	 
49,746	 -48,333	 -0,025	 -37,095	 339,300	 
49,746	 -48,331	 -0,025	 -37,092	 339,400	 
49,745	 -48,330	 -0,025	 -37,095	 339,500	 
49,744	 -48,328	 -0,025	 -37,095	 339,600	 
49,745	 -48,329	 -0,025	 -37,092	 339,700	 
49,748	 -48,329	 -0,025	 -37,092	 339,800	 
49,749	 -48,322	 -0,025	 -37,092	 339,900	 
49,746	 -48,325	 -0,025	 -37,092	 340,000	 
49,746	 -48,322	 -0,025	 -37,092	 340,100	 
49,754	 -48,322	 -0,025	 -37,087	 340,200	 
49,757	 -48,321	 -0,025	 -37,089	 340,300	 
49,761	 -48,320	 -0,025	 -37,087	 340,400	 
49,768	 -48,320	 -0,025	 -37,086	 340,500	 
49,772	 -48,318	 -0,025	 -37,088	 340,600	 
49,777	 -48,318	 -0,025	 -37,086	 340,700	 
49,781	 -48,314	 -0,025	 -37,083	 340,800	 
49,783	 -48,315	 -0,025	 -37,085	 340,900	 
49,787	 -48,314	 -0,025	 -37,086	 341,000	 
49,789	 -48,313	 -0,025	 -37,088	 341,100	 
49,789	 -48,312	 -0,025	 -37,084	 341,200	 
49,792	 -48,313	 -0,025	 -37,081	 341,300	 
49,790	 -48,309	 -0,025	 -37,081	 341,400	 
49,791	 -48,303	 -0,025	 -37,082	 341,500	 
49,795	 -48,306	 -0,025	 -37,079	 341,600	 
49,790	 -48,306	 -0,025	 -37,079	 341,700	 
49,792	 -48,306	 -0,025	 -37,077	 341,800	 
49,789	 -48,303	 -0,025	 -37,077	 341,900	 
49,789	 -48,304	 -0,025	 -37,078	 342,000	 
49,787	 -48,304	 -0,025	 -37,076	 342,100	 
49,785	 -48,300	 -0,025	 -37,073	 342,200	 
49,783	 -48,299	 -0,025	 -37,072	 342,300	 
49,781	 -48,300	 -0,025	 -37,075	 342,400	 
49,782	 -48,299	 -0,025	 -37,073	 342,500	 
49,781	 -48,299	 -0,025	 -37,073	 342,600	 
49,777	 -48,299	 -0,025	 -37,069	 342,700	 
49,779	 -48,296	 -0,025	 -37,064	 342,800	 
49,777	 -48,292	 -0,025	 -37,069	 342,900	 
49,775	 -48,292	 -0,025	 -37,068	 343,000	 
49,774	 -48,294	 -0,025	 -37,071	 343,100	 
49,772	 -48,294	 -0,025	 -37,067	 343,200	 
49,773	 -48,293	 -0,025	 -37,065	 343,300	 
49,775	 -48,286	 -0,025	 -37,064	 343,400	 
49,775	 -48,289	 -0,025	 -37,066	 343,500	 
49,778	 -48,291	 -0,025	 -37,067	 343,600	 
49,783	 -48,287	 -0,025	 -37,062	 343,700	 
49,781	 -48,286	 -0,025	 -37,061	 343,800	 
49,781	 -48,285	 -0,025	 -37,061	 343,900	 
49,782	 -48,284	 -0,025	 -37,064	 344,000	 
49,783	 -48,285	 -0,025	 -37,061	 344,100	 
49,781	 -48,281	 -0,025	 -37,059	 344,200	 
49,781	 -48,277	 -0,025	 -37,060	 344,300	 
49,781	 -48,281	 -0,025	 -37,059	 344,400	 
49,783	 -48,278	 -0,025	 -37,056	 344,500	 
49,785	 -48,279	 -0,025	 -37,059	 344,600	 
49,785	 -48,276	 -0,025	 -37,054	 344,700	 
49,783	 -48,277	 -0,025	 -37,054	 344,800	 
49,779	 -48,275	 -0,025	 -37,059	 344,900	 
49,781	 -48,272	 -0,025	 -37,055	 345,000	 
49,779	 -48,275	 -0,025	 -37,053	 345,100	 
49,778	 -48,273	 -0,025	 -37,047	 345,200	 
49,781	 -48,271	 -0,025	 -37,049	 345,300	 
49,780	 -48,272	 -0,025	 -37,051	 345,400	 
49,776	 -48,269	 -0,025	 -37,051	 345,500	 
49,779	 -48,269	 -0,025	 -37,047	 345,600	 
49,776	 -48,269	 -0,025	 -37,044	 345,700	 
49,776	 -48,265	 -0,025	 -37,047	 345,800	 
49,781	 -48,263	 -0,025	 -37,043	 345,900	 
49,778	 -48,262	 -0,025	 -37,046	 346,000	 
49,780	 -48,264	 -0,025	 -37,044	 346,100	 
49,779	 -48,265	 -0,025	 -37,043	 346,200	 
49,789	 -48,262	 -0,025	 -37,044	 346,300	 
49,799	 -48,257	 -0,025	 -37,042	 346,400	 
49,801	 -48,262	 -0,024	 -37,041	 346,500	 
49,803	 -48,256	 -0,025	 -37,043	 346,600	 
49,802	 -48,256	 -0,025	 -37,039	 346,700	 
49,807	 -48,256	 -0,025	 -37,037	 346,800	 
49,803	 -48,258	 -0,025	 -37,038	 346,900	 
49,801	 -48,253	 -0,025	 -37,040	 347,000	 
49,801	 -48,255	 -0,025	 -37,039	 347,100	 
49,801	 -48,251	 -0,025	 -37,032	 347,200	 
49,803	 -48,250	 -0,025	 -37,031	 347,300	 
49,799	 -48,248	 -0,025	 -37,037	 347,400	 
49,800	 -48,249	 -0,025	 -37,040	 347,500	 
49,797	 -48,251	 -0,025	 -37,033	 347,600	 
49,795	 -48,247	 -0,025	 -37,030	 347,700	 
49,798	 -48,244	 -0,025	 -37,029	 347,800	 
49,793	 -48,247	 -0,025	 -37,031	 347,900	 
49,796	 -48,244	 -0,025	 -37,030	 348,000	 
49,790	 -48,241	 -0,025	 -37,030	 348,100	 
49,793	 -48,242	 -0,025	 -37,029	 348,200	 
49,787	 -48,241	 -0,025	 -37,029	 348,300	 
49,788	 -48,240	 -0,025	 -37,027	 348,400	 
49,790	 -48,238	 -0,025	 -37,025	 348,500	 
49,789	 -48,239	 -0,025	 -37,029	 348,600	 
49,787	 -48,238	 -0,026	 -37,021	 348,700	 
49,785	 -48,237	 -0,025	 -37,024	 348,800	 
49,783	 -48,233	 -0,025	 -37,023	 348,900	 
49,790	 -48,234	 -0,025	 -37,023	 349,000	 
49,785	 -48,235	 -0,025	 -37,023	 349,100	 
49,790	 -48,233	 -0,025	 -37,018	 349,200	 
49,787	 -48,231	 -0,025	 -37,016	 349,300	 
49,791	 -48,230	 -0,025	 -37,019	 349,400	 
49,789	 -48,232	 -0,025	 -37,023	 349,500	 
49,790	 -48,232	 -0,025	 -37,020	 349,600	 
49,782	 -48,226	 -0,025	 -37,015	 349,700	 
49,792	 -48,228	 -0,025	 -37,016	 349,800	 
49,794	 -48,228	 -0,025	 -37,014	 349,900	 
49,794	 -48,226	 -0,025	 -37,015	 350,000	 
49,800	 -48,223	 -0,025	 -37,015	 350,100	 
49,801	 -48,222	 -0,025	 -37,011	 350,200	 
49,805	 -48,223	 -0,025	 -37,009	 350,300	 
49,800	 -48,221	 -0,025	 -37,013	 350,400	 
49,808	 -48,218	 -0,025	 -37,011	 350,500	 
49,808	 -48,218	 -0,025	 -37,015	 350,600	 
49,812	 -48,220	 -0,025	 -37,006	 350,700	 
49,814	 -48,217	 -0,025	 -37,005	 350,800	 
49,814	 -48,213	 -0,025	 -37,009	 350,900	 
49,816	 -48,215	 -0,025	 -37,009	 351,000	 
49,819	 -48,215	 -0,025	 -37,005	 351,100	 
49,819	 -48,211	 -0,025	 -37,004	 351,200	 
49,819	 -48,210	 -0,025	 -37,004	 351,300	 
49,819	 -48,212	 -0,025	 -37,006	 351,400	 
49,825	 -48,210	 -0,025	 -37,004	 351,500	 
49,825	 -48,207	 -0,025	 -37,004	 351,600	 
49,825	 -48,205	 -0,025	 -37,000	 351,700	 
49,828	 -48,205	 -0,025	 -37,000	 351,800	 
49,827	 -48,206	 -0,025	 -36,999	 351,900	 
49,825	 -48,204	 -0,025	 -37,000	 352,000	 
49,825	 -48,203	 -0,025	 -37,000	 352,100	 
49,833	 -48,202	 -0,025	 -36,996	 352,200	 
49,835	 -48,202	 -0,025	 -36,996	 352,300	 
49,834	 -48,200	 -0,025	 -36,996	 352,400	 
49,836	 -48,200	 -0,025	 -36,999	 352,500	 
49,836	 -48,200	 -0,025	 -36,997	 352,600	 
49,836	 -48,200	 -0,025	 -36,993	 352,700	 
49,842	 -48,197	 -0,025	 -36,993	 352,800	 
49,847	 -48,197	 -0,025	 -36,994	 352,900	 
49,856	 -48,194	 -0,025	 -36,993	 353,000	 
49,860	 -48,192	 -0,025	 -36,993	 353,100	 
49,862	 -48,191	 -0,025	 -36,981	 353,200	 
49,866	 -48,189	 -0,025	 -36,989	 353,300	 
49,867	 -48,187	 -0,025	 -36,990	 353,400	 
49,868	 -48,188	 -0,025	 -36,989	 353,500	 
49,874	 -48,189	 -0,025	 -36,987	 353,600	 
49,877	 -48,184	 -0,025	 -36,985	 353,700	 
49,879	 -48,186	 -0,025	 -36,986	 353,800	 
49,882	 -48,186	 -0,025	 -36,985	 353,900	 
49,880	 -48,182	 -0,025	 -36,981	 354,000	 
49,882	 -48,179	 -0,025	 -36,986	 354,100	 
49,879	 -48,179	 -0,025	 -36,981	 354,200	 
49,876	 -48,178	 -0,025	 -36,981	 354,300	 
49,875	 -48,177	 -0,025	 -36,980	 354,400	 
49,871	 -48,178	 -0,025	 -36,981	 354,500	 
49,871	 -48,177	 -0,025	 -36,977	 354,600	 
49,866	 -48,175	 -0,025	 -36,976	 354,700	 
49,866	 -48,173	 -0,025	 -36,976	 354,800	 
49,866	 -48,173	 -0,025	 -36,978	 354,900	 
49,865	 -48,172	 -0,025	 -36,978	 355,000	 
49,863	 -48,172	 -0,025	 -36,974	 355,100	 
49,863	 -48,167	 -0,025	 -36,972	 355,200	 
49,862	 -48,169	 -0,025	 -36,976	 355,300	 
49,865	 -48,172	 -0,025	 -36,974	 355,400	 
49,862	 -48,169	 -0,025	 -36,972	 355,500	 
49,862	 -48,166	 -0,026	 -36,971	 355,600	 
49,860	 -48,164	 -0,025	 -36,969	 355,700	 
49,860	 -48,167	 -0,025	 -36,971	 355,800	 
49,860	 -48,164	 -0,025	 -36,969	 355,900	 
49,855	 -48,161	 -0,025	 -36,970	 356,000	 
49,850	 -48,160	 -0,025	 -36,968	 356,100	 
49,845	 -48,163	 -0,025	 -36,968	 356,200	 
49,840	 -48,160	 -0,025	 -36,964	 356,300	 
49,833	 -48,158	 -0,025	 -36,967	 356,400	 
49,828	 -48,156	 -0,025	 -36,967	 356,500	 
49,825	 -48,159	 -0,025	 -36,962	 356,600	 
49,824	 -48,156	 -0,025	 -36,963	 356,700	 
49,818	 -48,152	 -0,026	 -36,965	 356,800	 
49,821	 -48,154	 -0,025	 -36,964	 356,900	 
49,819	 -48,154	 -0,025	 -36,964	 357,000	 
49,819	 -48,152	 -0,025	 -36,959	 357,100	 
49,819	 -48,148	 -0,025	 -36,960	 357,200	 
49,820	 -48,151	 -0,025	 -36,960	 357,300	 
49,819	 -48,152	 -0,025	 -36,959	 357,400	 
49,827	 -48,148	 -0,025	 -36,959	 357,500	 
49,826	 -48,145	 -0,025	 -36,955	 357,600	 
49,830	 -48,148	 -0,025	 -36,954	 357,700	 
49,832	 -48,145	 -0,025	 -36,953	 357,800	 
49,837	 -48,145	 -0,025	 -36,954	 357,900	 
49,837	 -48,143	 -0,025	 -36,955	 358,000	 
49,838	 -48,141	 -0,025	 -36,951	 358,100	 
49,838	 -48,143	 -0,025	 -36,949	 358,200	 
49,833	 -48,144	 -0,025	 -36,951	 358,300	 
49,832	 -48,139	 -0,025	 -36,951	 358,400	 
49,829	 -48,136	 -0,025	 -36,951	 358,500	 
49,827	 -48,139	 -0,025	 -36,945	 358,600	 
49,822	 -48,138	 -0,024	 -36,946	 358,700	 
49,818	 -48,136	 -0,025	 -36,949	 358,800	 
49,821	 -48,135	 -0,025	 -36,949	 358,900	 
49,815	 -48,138	 -0,025	 -36,947	 359,000	 
49,819	 -48,135	 -0,025	 -36,943	 359,100	 
49,821	 -48,135	 -0,025	 -36,943	 359,200	 
49,816	 -48,131	 -0,025	 -36,943	 359,300	 
49,819	 -48,137	 -0,025	 -36,943	 359,400	 
49,827	 -48,131	 -0,025	 -36,944	 359,500	 
49,837	 -48,128	 -0,025	 -36,941	 359,600	 
49,844	 -48,128	 -0,025	 -36,937	 359,700	 
49,849	 -48,127	 -0,025	 -36,937	 359,800	 
49,859	 -48,125	 -0,025	 -36,937	 359,900	 
49,865	 -48,124	 -0,025	 -36,937	 360,000	 
49,871	 -48,123	 -0,025	 -36,937	 360,100	 
49,884	 -48,123	 -0,025	 -36,932	 360,200	 
49,890	 -48,121	 -0,025	 -36,935	 360,300	 
49,897	 -48,119	 -0,025	 -36,936	 360,400	 
49,902	 -48,118	 -0,025	 -36,934	 360,500	 
49,904	 -48,116	 -0,025	 -36,931	 360,600	 
49,909	 -48,116	 -0,025	 -36,931	 360,700	 
49,908	 -48,119	 -0,025	 -36,933	 360,800	 
49,911	 -48,115	 -0,025	 -36,932	 360,900	 
49,909	 -48,116	 -0,025	 -36,929	 361,000	 
49,910	 -48,111	 -0,025	 -36,928	 361,100	 
49,909	 -48,110	 -0,025	 -36,928	 361,200	 
49,907	 -48,110	 -0,025	 -36,928	 361,300	 
49,909	 -48,109	 -0,025	 -36,927	 361,400	 
49,905	 -48,107	 -0,025	 -36,928	 361,500	 
49,904	 -48,107	 -0,025	 -36,925	 361,600	 
49,899	 -48,106	 -0,025	 -36,924	 361,700	 
49,898	 -48,103	 -0,025	 -36,925	 361,800	 
49,898	 -48,103	 -0,025	 -36,925	 361,900	 
49,897	 -48,103	 -0,025	 -36,928	 362,000	 
49,895	 -48,103	 -0,025	 -36,921	 362,100	 
49,893	 -48,101	 -0,025	 -36,921	 362,200	 
49,897	 -48,096	 -0,025	 -36,919	 362,300	 
49,893	 -48,101	 -0,025	 -36,918	 362,400	 
49,897	 -48,098	 -0,025	 -36,919	 362,500	 
49,893	 -48,095	 -0,025	 -36,916	 362,600	 
49,893	 -48,093	 -0,025	 -36,916	 362,700	 
49,895	 -48,094	 -0,025	 -36,916	 362,800	 
49,896	 -48,095	 -0,025	 -36,916	 362,900	 
49,897	 -48,091	 -0,025	 -36,916	 363,000	 
49,894	 -48,093	 -0,025	 -36,912	 363,100	 
49,895	 -48,089	 -0,025	 -36,913	 363,200	 
49,894	 -48,089	 -0,025	 -36,911	 363,300	 
49,893	 -48,088	 -0,025	 -36,913	 363,400	 
49,888	 -48,087	 -0,025	 -36,913	 363,500	 
49,889	 -48,087	 -0,025	 -36,909	 363,600	 
49,887	 -48,088	 -0,025	 -36,908	 363,700	 
49,887	 -48,087	 -0,025	 -36,907	 363,800	 
49,884	 -48,082	 -0,025	 -36,910	 363,900	 
49,879	 -48,082	 -0,025	 -36,910	 364,000	 
49,874	 -48,086	 -0,025	 -36,905	 364,100	 
49,873	 -48,082	 -0,025	 -36,905	 364,200	 
49,867	 -48,080	 -0,025	 -36,906	 364,300	 
49,871	 -48,079	 -0,025	 -36,906	 364,400	 
49,868	 -48,080	 -0,025	 -36,903	 364,500	 
49,864	 -48,079	 -0,025	 -36,900	 364,600	 
49,863	 -48,078	 -0,025	 -36,904	 364,700	 
49,865	 -48,076	 -0,025	 -36,902	 364,800	 
49,862	 -48,075	 -0,025	 -36,899	 364,900	 
49,860	 -48,075	 -0,025	 -36,901	 365,000	 
49,857	 -48,070	 -0,025	 -36,897	 365,100	 
49,863	 -48,070	 -0,025	 -36,898	 365,200	 
49,868	 -48,075	 -0,025	 -36,897	 365,300	 
49,876	 -48,071	 -0,025	 -36,898	 365,400	 
49,879	 -48,068	 -0,025	 -36,898	 365,500	 
49,882	 -48,070	 -0,025	 -36,893	 365,600	 
49,882	 -48,068	 -0,025	 -36,892	 365,700	 
49,887	 -48,068	 -0,025	 -36,893	 365,800	 
49,888	 -48,065	 -0,025	 -36,895	 365,900	 
49,890	 -48,067	 -0,025	 -36,893	 366,000	 
49,890	 -48,066	 -0,025	 -36,889	 366,100	 
49,894	 -48,065	 -0,025	 -36,890	 366,200	 
49,897	 -48,063	 -0,025	 -36,891	 366,300	 
49,901	 -48,063	 -0,025	 -36,890	 366,400	 
49,904	 -48,063	 -0,025	 -36,890	 366,500	 
49,912	 -48,058	 -0,025	 -36,884	 366,600	 
49,912	 -48,058	 -0,025	 -36,887	 366,700	 
49,916	 -48,059	 -0,025	 -36,888	 366,800	 
49,918	 -48,057	 -0,025	 -36,886	 366,900	 
49,921	 -48,055	 -0,025	 -36,885	 367,000	 
49,922	 -48,050	 -0,025	 -36,883	 367,100	 
49,928	 -48,052	 -0,025	 -36,883	 367,200	 
49,930	 -48,054	 -0,025	 -36,884	 367,300	 
49,933	 -48,050	 -0,025	 -36,883	 367,400	 
49,933	 -48,049	 -0,025	 -36,883	 367,500	 
49,935	 -48,049	 -0,025	 -36,879	 367,600	 
49,929	 -48,048	 -0,025	 -36,877	 367,700	 
49,928	 -48,044	 -0,025	 -36,879	 367,800	 
49,921	 -48,045	 -0,026	 -36,880	 367,900	 
49,923	 -48,043	 -0,025	 -36,880	 368,000	 
49,915	 -48,043	 -0,025	 -36,874	 368,100	 
49,914	 -48,041	 -0,025	 -36,873	 368,200	 
49,910	 -48,040	 -0,025	 -36,876	 368,300	 
49,914	 -48,043	 -0,025	 -36,876	 368,400	 
49,912	 -48,039	 -0,025	 -36,873	 368,500	 
49,910	 -48,038	 -0,025	 -36,869	 368,600	 
49,908	 -48,038	 -0,025	 -36,871	 368,700	 
49,910	 -48,039	 -0,025	 -36,871	 368,800	 
49,905	 -48,035	 -0,025	 -36,871	 368,900	 
49,913	 -48,034	 -0,025	 -36,871	 369,000	 
49,911	 -48,033	 -0,025	 -36,868	 369,100	 
49,919	 -48,035	 -0,025	 -36,869	 369,200	 
49,923	 -48,031	 -0,025	 -36,865	 369,300	 
49,922	 -48,028	 -0,025	 -36,867	 369,400	 
49,923	 -48,029	 -0,025	 -36,868	 369,500	 
49,921	 -48,031	 -0,025	 -36,863	 369,600	 
49,917	 -48,028	 -0,025	 -36,863	 369,700	 
49,921	 -48,028	 -0,025	 -36,863	 369,800	 
49,925	 -48,025	 -0,025	 -36,863	 369,900	 
49,927	 -48,026	 -0,024	 -36,863	 370,000	 
49,928	 -48,024	 -0,025	 -36,858	 370,100	 
49,933	 -48,022	 -0,025	 -36,859	 370,200	 
49,930	 -48,020	 -0,025	 -36,859	 370,300	 
49,940	 -48,022	 -0,025	 -36,858	 370,400	 
49,945	 -48,019	 -0,025	 -36,856	 370,500	 
49,946	 -48,016	 -0,025	 -36,856	 370,600	 
49,941	 -48,015	 -0,025	 -36,854	 370,700	 
49,944	 -48,017	 -0,025	 -36,856	 370,800	 
49,942	 -48,014	 -0,025	 -36,854	 370,900	 
49,944	 -48,013	 -0,025	 -36,856	 371,000	 
49,936	 -48,014	 -0,025	 -36,849	 371,100	 
49,939	 -48,014	 -0,025	 -36,849	 371,200	 
49,936	 -48,013	 -0,025	 -36,849	 371,300	 
49,939	 -48,009	 -0,025	 -36,854	 371,400	 
49,937	 -48,008	 -0,025	 -36,849	 371,500	 
49,933	 -48,008	 -0,025	 -36,845	 371,600	 
49,929	 -48,008	 -0,025	 -36,847	 371,700	 
49,929	 -48,006	 -0,025	 -36,849	 371,800	 
49,925	 -48,004	 -0,025	 -36,847	 371,900	 
49,927	 -48,003	 -0,026	 -36,844	 372,000	 
49,922	 -48,003	 -0,025	 -36,843	 372,100	 
49,923	 -48,003	 -0,025	 -36,844	 372,200	 
49,924	 -47,999	 -0,025	 -36,844	 372,300	 
49,923	 -47,998	 -0,025	 -36,843	 372,400	 
49,923	 -48,000	 -0,025	 -36,841	 372,500	 
49,923	 -47,997	 -0,025	 -36,846	 372,600	 
49,922	 -47,997	 -0,025	 -36,843	 372,700	 
49,923	 -47,999	 -0,025	 -36,840	 372,800	 
49,925	 -47,994	 -0,025	 -36,840	 372,900	 
49,923	 -47,992	 -0,025	 -36,838	 373,000	 
49,923	 -47,992	 -0,025	 -36,839	 373,100	 
49,919	 -47,992	 -0,025	 -36,834	 373,200	 
49,918	 -47,991	 -0,025	 -36,839	 373,300	 
49,919	 -47,988	 -0,025	 -36,838	 373,400	 
49,912	 -47,988	 -0,025	 -36,834	 373,500	 
49,906	 -47,992	 -0,025	 -36,832	 373,600	 
49,904	 -47,989	 -0,025	 -36,834	 373,700	 
49,906	 -47,990	 -0,025	 -36,833	 373,800	 
49,907	 -47,987	 -0,025	 -36,834	 373,900	 
49,904	 -47,984	 -0,025	 -36,829	 374,000	 
49,910	 -47,984	 -0,025	 -36,829	 374,100	 
49,910	 -47,984	 -0,025	 -36,833	 374,200	 
49,915	 -47,984	 -0,025	 -36,829	 374,300	 
49,917	 -47,984	 -0,025	 -36,832	 374,400	 
49,925	 -47,980	 -0,025	 -36,828	 374,500	 
49,921	 -47,980	 -0,025	 -36,828	 374,600	 
49,934	 -47,982	 -0,025	 -36,828	 374,700	 
49,937	 -47,978	 -0,025	 -36,828	 374,800	 
49,944	 -47,975	 -0,025	 -36,828	 374,900	 
49,947	 -47,973	 -0,025	 -36,824	 375,000	 
49,951	 -47,974	 -0,025	 -36,821	 375,100	 
49,950	 -47,974	 -0,025	 -36,822	 375,200	 
49,951	 -47,972	 -0,025	 -36,824	 375,300	 
49,947	 -47,973	 -0,025	 -36,823	 375,400	 
49,949	 -47,973	 -0,025	 -36,818	 375,500	 
49,943	 -47,968	 -0,025	 -36,818	 375,600	 
49,945	 -47,968	 -0,025	 -36,818	 375,700	 
49,948	 -47,968	 -0,025	 -36,817	 375,800	 
49,950	 -47,970	 -0,025	 -36,818	 375,900	 
49,949	 -47,966	 -0,025	 -36,816	 376,000	 
49,960	 -47,963	 -0,025	 -36,814	 376,100	 
49,967	 -47,963	 -0,025	 -36,815	 376,200	 
49,974	 -47,964	 -0,025	 -36,814	 376,300	 
49,973	 -47,961	 -0,025	 -36,816	 376,400	 
49,974	 -47,959	 -0,025	 -36,811	 376,500	 
49,977	 -47,956	 -0,025	 -36,808	 376,600	 
49,981	 -47,961	 -0,025	 -36,810	 376,700	 
49,978	 -47,961	 -0,025	 -36,813	 376,800	 
49,985	 -47,954	 -0,025	 -36,812	 376,900	 
49,989	 -47,952	 -0,025	 -36,805	 377,000	 
49,993	 -47,954	 -0,025	 -36,805	 377,100	 
49,993	 -47,951	 -0,025	 -36,807	 377,200	 
49,993	 -47,952	 -0,025	 -36,808	 377,300	 
49,995	 -47,948	 -0,025	 -36,806	 377,400	 
49,990	 -47,948	 -0,025	 -36,803	 377,500	 
49,992	 -47,947	 -0,025	 -36,802	 377,600	 
49,995	 -47,947	 -0,025	 -36,804	 377,700	 
49,991	 -47,944	 -0,025	 -36,804	 377,800	 
49,991	 -47,944	 -0,025	 -36,803	 377,900	 
49,992	 -47,942	 -0,025	 -36,797	 378,000	 
49,989	 -47,941	 -0,025	 -36,799	 378,100	 
49,995	 -47,941	 -0,025	 -36,800	 378,200	 
49,706	 -47,947	 -0,025	 -36,840	 378,300	 
